File: dtsa2/DemoSpectra/K411-K412/CaF2 std.msa
#FORMAT      : EMSA/MAS Spectral Data File
#VERSION     : 1.0
#TITLE       : Bruker AXS spectrum CaF2
#DATE        : 29-JUL-2008
#TIME        : 10:19
#OWNER       : Bruker AXS
#NPOINTS     : 4096
#NCOLUMNS    : 4
#XUNITS      : eV
#YUNITS      : counts
#DATATYPE    : Y
#XPERCHAN    : 5.00409
#OFFSET      : -477.824
#BEAMKV      : 15
#SIGNALTYPE  : EDS
#ELEVANGLE   : 40
#AZIMANGLE   : 180
#LIVETIME    : 59.358
#REALTIME    : 62.941
#PROBECUR    : 2.5
#TAUWIND     : 0
#TDEADLYR    : 0.00001
#TACTLYR     : 0.045
#TALWIND     : 0.003
#CHOFFSET    : 0.0
#XLABEL      : Energy (eV)
#YLABEL      : Counts
#EDSDET      : SDDUTW
##D2STDCMP   : CaF2,(F:48.6667),(Ca:51.3333),5.0
#SPECTRUM    :
0, 0, 0, 0,
0, 0, 0, 0,
0, 0, 0, 0,
0, 0, 0, 0,
0, 0, 0, 0,
1, 2, 8, 45,
99155, 85618, 66602, 46433,
14, 42, 70, 89,
106, 114, 117, 122,
641, 762, 898, 1050,
707, 653, 635, 593,
147, 154, 164, 153,
224, 237, 229, 230,
331, 362, 390, 390,
7880, 10002, 12469, 14931,
3184, 2203, 1405, 887,
248, 248, 213, 274,
310, 313, 280, 332,
350, 369, 355, 338,
404, 396, 395, 438,
427, 449, 438, 467,
504, 503, 492, 499,
484, 523, 462, 496,
519, 507, 500, 509,
518, 517, 487, 491,
502, 533, 532, 513,
473, 470, 499, 473,
501, 526, 504, 492,
518, 510, 498, 549,
508, 466, 504, 494,
480, 515, 467, 476,
483, 480, 423, 482,
419, 476, 399, 439,
443, 423, 464, 431,
413, 413, 399, 398,
414, 416, 377, 371,
382, 409, 336, 398,
367, 393, 381, 388,
389, 377, 345, 389,
334, 347, 333, 359,
360, 339, 347, 355,
332, 323, 325, 341,
363, 349, 317, 318,
290, 327, 331, 296,
309, 313, 323, 316,
327, 311, 318, 304,
308, 314, 305, 308,
296, 296, 276, 283,
291, 240, 266, 250,
290, 281, 272, 285,
378, 374, 444, 436,
2556, 3103, 3840, 4762,
20729, 21531, 21548, 21639,
6413, 5366, 4489, 3592,
360, 342, 315, 320,
587, 656, 725, 831,
2634, 2725, 2767, 2736,
1090, 930, 849, 778,
159, 174, 194, 188,
167, 183, 166, 157,
174, 201, 181, 178,
176, 138, 154, 166,
158, 151, 159, 145,
155, 150, 153, 165,
141, 154, 143, 140,
140, 152, 125, 136,
138, 136, 158, 150,
149, 132, 149, 134,
139, 120, 149, 150,
107, 145, 127, 135,
123, 143, 126, 125,
125, 124, 120, 127,
109, 132, 118, 122,
134, 108, 134, 133,
128, 110, 122, 121,
98, 116, 137, 110,
116, 108, 123, 122,
105, 118, 93, 114,
110, 104, 117, 128,
128, 110, 128, 101,
102, 111, 95, 93,
107, 100, 90, 117,
88, 91, 116, 102,
96, 78, 88, 97,
92, 99, 81, 98,
91, 103, 97, 98,
98, 79, 100, 104,
93, 86, 103, 94,
94, 82, 75, 82,
93, 77, 85, 88,
86, 95, 89, 90,
74, 90, 86, 72,
93, 77, 62, 96,
73, 89, 84, 79,
70, 86, 65, 74,
73, 63, 74, 73,
65, 52, 81, 84,
87, 81, 58, 60,
67, 63, 75, 73,
65, 59, 68, 64,
60, 56, 73, 59,
71, 67, 80, 69,
71, 64, 63, 63,
62, 68, 53, 61,
57, 68, 60, 55,
59, 62, 66, 47,
54, 62, 44, 45,
59, 62, 56, 52,
42, 42, 51, 38,
51, 55, 56, 47,
41, 46, 54, 50,
46, 54, 49, 54,
47, 61, 56, 54,
44, 51, 56, 45,
49, 53, 44, 66,
58, 44, 46, 49,
46, 47, 43, 42,
44, 54, 37, 32,
51, 40, 50, 44,
38, 44, 44, 48,
44, 47, 24, 40,
30, 49, 49, 39,
41, 46, 34, 31,
36, 35, 41, 52,
54, 29, 31, 38,
28, 27, 37, 32,
34, 36, 31, 30,
29, 42, 40, 40,
36, 27, 35, 43,
33, 36, 33, 43,
35, 38, 26, 37,
26, 36, 25, 22,
37, 31, 29, 37,
35, 26, 29, 32,
20, 31, 27, 28,
21, 28, 17, 31,
21, 20, 20, 18,
35, 29, 29, 26,
37, 21, 25, 24,
34, 24, 32, 24,
26, 24, 27, 25,
22, 20, 23, 24,
27, 19, 25, 26,
26, 23, 26, 21,
19, 18, 17, 29,
22, 18, 21, 20,
13, 19, 13, 14,
15, 14, 20, 15,
23, 12, 16, 13,
13, 19, 16, 19,
23, 23, 16, 12,
17, 18, 16, 24,
12, 16, 22, 14,
15, 16, 17, 12,
16, 19, 12, 24,
12, 14, 12, 14,
19, 13, 13, 11,
9, 16, 14, 12,
12, 13, 13, 6,
13, 13, 8, 13,
15, 14, 12, 11,
6, 4, 14, 11,
11, 16, 12, 10,
20, 11, 12, 9,
7, 15, 6, 5,
8, 6, 8, 13,
6, 10, 9, 9,
7, 4, 9, 5,
12, 4, 6, 7,
4, 7, 4, 8,
7, 6, 8, 10,
5, 7, 7, 9,
7, 8, 7, 7,
8, 2, 5, 6,
6, 6, 6, 4,
7, 6, 6, 3,
3, 8, 4, 4,
5, 3, 10, 5,
3, 1, 4, 3,
3, 3, 5, 5,
3, 4, 2, 5,
4, 3, 3, 5,
4, 0, 6, 6,
2, 2, 2, 2,
2, 1, 2, 0,
2, 1, 2, 3,
2, 3, 0, 1,
1, 4, 2, 2,
0, 2, 0, 3,
0, 2, 2, 2,
0, 1, 1, 1,
3, 2, 1, 1,
0, 1, 1, 0,
0, 0, 0, 0,
0, 0, 0, 0,
0, 0, 1, 1,
0, 0, 0, 0,
0, 0, 0, 0,
0, 0, 1, 0,
0, 0, 0, 0,
0, 0, 0, 0,
0, 0, 0, 0,
0, 0, 0, 0,
0, 0, 0, 0,
0, 0, 0, 0,
0, 0, 0, 0,
0, 0, 0, 0,
0, 0, 0, 0,
0, 0, 0, 0,
0, 0, 0, 0,
0, 0, 0, 0,
0, 0, 0, 0,
0, 0, 0, 0,
0, 0, 0, 0,
0, 0, 0, 0,
0, 0, 0, 0,
0, 0, 0, 0,
0, 0, 0, 0,
0, 0, 0, 0,
0, 0, 0, 0,
0, 0, 0, 0,
0, 0, 0, 0,
0, 0, 0, 0,
0, 0, 0, 1,
0, 0, 0, 0,
0, 0, 0, 0,
0, 0, 0, 0,
0, 0, 0, 0,
0, 0, 0, 0,
0, 0, 0, 0,
0, 0, 0, 0,
0, 0, 0, 0,
0, 0, 0, 0,
0, 0, 0, 0,
0, 0, 0, 0,
0, 0, 0, 0,
0, 0, 0, 0,
0, 0, 0, 0,
0, 0, 0, 0,
0, 0, 0, 0,
0, 0, 0, 0,
0, 0, 0, 0,
0, 0, 0, 0,
0, 0, 0, 0,
0, 0, 0, 0,
0, 0, 0, 0,
0, 0, 0, 0,
0, 0, 0, 0,
0, 0, 0, 0,
0, 0, 0, 0,
0, 0, 0, 0,
0, 0, 0, 0,
0, 0, 0, 0,
0, 0, 0, 0,
0, 0, 0, 0,
0, 0, 0, 0,
0, 0, 0, 0,
#ENDOFDATA   :