File: dtsa2/DemoSpectra/K411-K412/Fe std.msa
#FORMAT      : EMSA/MAS Spectral Data File
#VERSION     : 1.0
#TITLE       : Bruker AXS spectrum Fe
#DATE        : 29-JUL-2008
#TIME        : 10:20
#OWNER       : Bruker AXS
#NPOINTS     : 4096
#NCOLUMNS    : 4
#XUNITS      : eV
#YUNITS      : counts
#DATATYPE    : Y
#XPERCHAN    : 5.00409
#OFFSET      : -477.824
#BEAMKV      : 15
#SIGNALTYPE  : EDS
#ELEVANGLE   : 40
#AZIMANGLE   : 180
#LIVETIME    : 59.355
#REALTIME    : 63.325
#PROBECUR    : 2.5
#TAUWIND     : 0
#TDEADLYR    : 0.00001
#TACTLYR     : 0.045
#TALWIND     : 0.003
#CHOFFSET    : 0.0
#XLABEL      : Energy (eV)
#YLABEL      : Counts
#EDSDET      : SDDUTW
##D2STDCMP   : Fe,(Fe:100.0),5.0
#SPECTRUM    :
0, 0, 0, 0,
0, 0, 0, 0,
0, 0, 0, 0,
0, 0, 0, 0,
0, 0, 0, 0,
0, 7, 17, 42,
115196, 98574, 76454, 53854,
27, 61, 98, 125,
137, 141, 147, 152,
383, 414, 453, 498,
275, 270, 291, 291,
486, 506, 492, 521,
882, 923, 951, 999,
1949, 2262, 2753, 3495,
6341, 6066, 6300, 6877,
15557, 13062, 10542, 8120,
520, 477, 380, 399,
281, 317, 335, 358,
352, 338, 391, 433,
440, 434, 414, 432,
465, 476, 478, 512,
511, 519, 491, 533,
555, 523, 540, 535,
568, 565, 614, 582,
599, 537, 603, 602,
623, 672, 602, 588,
592, 564, 595, 538,
613, 597, 612, 601,
662, 665, 627, 628,
682, 632, 609, 696,
618, 631, 622, 594,
631, 649, 612, 567,
633, 597, 592, 629,
651, 636, 622, 639,
603, 626, 645, 604,
609, 599, 578, 624,
616, 595, 596, 572,
561, 583, 602, 616,
539, 569, 569, 552,
544, 539, 534, 573,
528, 544, 551, 532,
509, 532, 548, 467,
553, 512, 537, 488,
502, 501, 481, 499,
550, 482, 520, 512,
497, 507, 456, 498,
472, 464, 449, 460,
446, 454, 442, 463,
405, 483, 432, 464,
421, 424, 410, 430,
432, 424, 415, 440,
431, 404, 409, 384,
447, 415, 405, 430,
404, 385, 400, 387,
378, 383, 418, 362,
376, 362, 388, 374,
341, 358, 353, 348,
328, 367, 361, 366,
345, 367, 362, 322,
323, 343, 320, 347,
313, 325, 369, 321,
307, 336, 338, 345,
308, 308, 271, 309,
313, 300, 298, 269,
286, 288, 289, 284,
260, 330, 311, 302,
286, 298, 282, 325,
267, 266, 281, 267,
283, 270, 254, 276,
275, 261, 279, 273,
275, 266, 274, 272,
260, 261, 247, 246,
240, 246, 236, 261,
244, 286, 264, 260,
257, 279, 257, 255,
237, 219, 251, 238,
202, 239, 236, 217,
216, 218, 238, 207,
244, 200, 206, 220,
204, 179, 193, 223,
216, 197, 223, 201,
215, 236, 211, 229,
207, 183, 252, 183,
249, 211, 234, 260,
468, 527, 623, 733,
5045, 5571, 6250, 7041,
12811, 12526, 12474, 11937,
4093, 3481, 3072, 2687,
339, 307, 286, 288,
182, 191, 189, 185,
164, 192, 182, 187,
198, 191, 187, 187,
191, 220, 248, 260,
646, 694, 769, 910,
1795, 1660, 1658, 1685,
876, 805, 720, 700,
197, 215, 168, 179,
112, 91, 126, 114,
135, 111, 122, 124,
116, 112, 146, 118,
113, 135, 114, 105,
110, 110, 96, 121,
110, 109, 93, 107,
93, 121, 114, 116,
112, 102, 98, 113,
93, 111, 92, 89,
99, 100, 110, 119,
101, 115, 89, 103,
110, 109, 110, 105,
121, 109, 102, 93,
118, 104, 108, 103,
93, 92, 73, 108,
82, 87, 106, 110,
90, 72, 93, 75,
84, 79, 91, 84,
81, 96, 85, 106,
80, 102, 83, 80,
71, 91, 90, 91,
90, 99, 79, 90,
74, 94, 78, 90,
67, 87, 81, 83,
86, 88, 78, 78,
76, 65, 79, 71,
76, 76, 73, 60,
67, 82, 66, 61,
67, 73, 77, 63,
75, 74, 68, 63,
64, 72, 85, 79,
77, 81, 67, 61,
73, 69, 64, 62,
65, 76, 68, 59,
48, 69, 62, 61,
65, 59, 66, 66,
62, 66, 63, 59,
60, 61, 51, 58,
53, 50, 66, 60,
45, 69, 60, 52,
52, 64, 50, 49,
46, 49, 58, 61,
39, 37, 47, 49,
55, 52, 41, 59,
47, 43, 42, 54,
44, 46, 39, 47,
48, 52, 47, 44,
40, 41, 44, 52,
54, 39, 46, 44,
48, 40, 41, 39,
40, 41, 47, 35,
41, 48, 31, 30,
38, 38, 31, 35,
42, 34, 45, 39,
52, 33, 31, 30,
40, 38, 33, 37,
31, 30, 31, 29,
29, 32, 34, 32,
37, 29, 31, 31,
27, 35, 30, 27,
34, 30, 18, 22,
32, 25, 24, 28,
21, 27, 27, 27,
28, 16, 24, 40,
17, 36, 18, 27,
19, 22, 25, 26,
32, 21, 28, 25,
22, 19, 22, 19,
28, 25, 15, 20,
23, 22, 21, 22,
17, 25, 19, 14,
16, 9, 11, 15,
17, 13, 13, 15,
15, 18, 17, 11,
18, 18, 11, 17,
8, 13, 12, 15,
7, 15, 9, 17,
10, 11, 11, 14,
5, 12, 8, 11,
9, 12, 10, 9,
9, 10, 5, 12,
12, 10, 12, 10,
7, 13, 4, 9,
13, 10, 9, 5,
15, 12, 9, 7,
9, 2, 4, 3,
3, 5, 4, 8,
13, 8, 6, 7,
2, 7, 6, 4,
3, 6, 4, 9,
1, 3, 4, 4,
2, 5, 2, 3,
5, 2, 1, 1,
3, 1, 0, 4,
3, 1, 1, 2,
5, 1, 3, 0,
0, 0, 2, 0,
1, 0, 1, 0,
0, 0, 0, 0,
0, 0, 0, 0,
0, 0, 0, 0,
0, 0, 0, 0,
0, 0, 0, 1,
0, 0, 0, 0,
0, 0, 0, 0,
0, 0, 0, 1,
0, 0, 0, 0,
0, 0, 0, 0,
1, 0, 0, 0,
0, 0, 0, 0,
0, 0, 0, 0,
0, 0, 0, 0,
0, 1, 0, 0,
0, 0, 0, 0,
0, 0, 0, 0,
0, 0, 0, 0,
0, 0, 0, 0,
0, 0, 0, 0,
0, 0, 0, 0,
0, 0, 0, 0,
1, 0, 0, 0,
0, 0, 0, 0,
0, 0, 1, 0,
0, 0, 0, 0,
0, 0, 0, 1,
0, 0, 0, 0,
0, 0, 0, 0,
0, 0, 0, 0,
0, 0, 0, 0,
0, 0, 0, 0,
0, 0, 0, 0,
0, 0, 0, 0,
0, 0, 0, 0,
0, 0, 0, 0,
0, 0, 0, 0,
0, 0, 0, 0,
0, 0, 0, 0,
0, 0, 0, 0,
0, 0, 0, 0,
0, 0, 0, 0,
0, 0, 0, 0,
0, 0, 0, 0,
0, 0, 0, 0,
0, 0, 0, 0,
0, 0, 0, 0,
0, 0, 0, 0,
0, 0, 0, 0,
0, 0, 0, 0,
0, 0, 0, 0,
0, 0, 0, 0,
0, 0, 0, 0,
0, 0, 0, 0,
0, 0, 0, 0,
0, 0, 0, 0,
0, 0, 0, 0,
0, 0, 0, 0,
0, 0, 0, 0,
0, 0, 0, 0,
0, 0, 0, 0,
0, 0, 0, 0,
#ENDOFDATA   :