File: dtsa2/DemoSpectra/K411-K412/K411 std.msa
#FORMAT      : EMSA/MAS Spectral Data File
#VERSION     : 1.0
#TITLE       : Bruker AXS spectrum K411
#DATE        : 29-JUL-2008
#TIME        : 10:36
#OWNER       : Bruker AXS
#NPOINTS     : 4096
#NCOLUMNS    : 4
#XUNITS      : eV
#YUNITS      : counts
#DATATYPE    : Y
#XPERCHAN    : 5.00409
#OFFSET      : -477.824
#BEAMKV      : 15
#SIGNALTYPE  : EDS
#ELEVANGLE   : 40
#AZIMANGLE   : 180
#LIVETIME    : 59.358
#REALTIME    : 63.057
#PROBECUR    : 2.5
#TAUWIND     : 0
#TDEADLYR    : 0.00001
#TACTLYR     : 0.045
#TALWIND     : 0.003
#CHOFFSET    : 0.0
#XLABEL      : Energy (eV)
#YLABEL      : Counts
#EDSDET      : SDDUTW
##D2STDCMP   : K411,(O:42.3667),(Mg:8.8465),(Si:25.3817),(Ca:11.0563),(Fe:11.2087),2.95
#SPECTRUM    :
0, 0, 0, 0,
0, 0, 0, 0,
0, 0, 0, 0,
0, 0, 0, 0,
0, 0, 0, 0,
2, 2, 10, 38,
102844, 88250, 68558, 48022,
9, 34, 60, 77,
69, 71, 67, 68,
279, 329, 377, 434,
209, 212, 205, 220,
265, 268, 287, 312,
5320, 6994, 9144, 11572,
3578, 2454, 1527, 1046,
387, 365, 377, 468,
1398, 1294, 1070, 983,
342, 343, 326, 333,
333, 361, 348, 356,
428, 409, 359, 460,
478, 481, 495, 460,
521, 524, 531, 554,
2046, 2575, 3180, 4052,
6209, 5218, 4338, 3536,
480, 502, 512, 459,
504, 479, 514, 491,
559, 579, 532, 550,
535, 554, 545, 541,
4532, 5538, 7384, 9231,
19653, 17623, 15336, 13023,
1498, 1295, 1122, 1087,
365, 343, 352, 328,
341, 337, 338, 304,
348, 349, 339, 329,
340, 321, 306, 326,
312, 356, 340, 303,
317, 320, 337, 312,
287, 307, 297, 305,
279, 318, 265, 309,
311, 287, 293, 300,
259, 292, 281, 305,
269, 279, 281, 282,
260, 269, 271, 283,
259, 251, 273, 261,
268, 262, 259, 265,
273, 248, 249, 259,
249, 244, 259, 243,
246, 231, 260, 224,
230, 228, 232, 242,
227, 229, 222, 209,
250, 235, 221, 210,
243, 236, 236, 246,
639, 734, 881, 1025,
4273, 4515, 4493, 4541,
1374, 1185, 996, 856,
179, 204, 188, 233,
254, 281, 268, 325,
694, 668, 694, 656,
379, 344, 306, 292,
154, 175, 172, 183,
162, 166, 131, 151,
136, 162, 133, 147,
157, 145, 139, 130,
142, 123, 140, 133,
153, 149, 166, 138,
159, 117, 139, 141,
144, 133, 140, 139,
100, 122, 115, 124,
168, 134, 161, 159,
101, 125, 116, 140,
132, 144, 116, 126,
112, 129, 121, 130,
128, 109, 128, 128,
129, 110, 117, 113,
117, 110, 119, 132,
120, 100, 122, 109,
106, 103, 100, 101,
108, 104, 106, 107,
83, 81, 96, 98,
99, 106, 93, 97,
88, 91, 102, 95,
111, 119, 106, 90,
97, 97, 107, 94,
96, 82, 81, 84,
88, 101, 91, 82,
112, 97, 127, 132,
497, 562, 653, 701,
1235, 1193, 1228, 1202,
444, 415, 358, 308,
105, 92, 82, 88,
74, 86, 67, 69,
69, 78, 73, 72,
75, 69, 72, 56,
73, 69, 71, 81,
107, 132, 112, 122,
206, 205, 203, 196,
135, 145, 104, 103,
64, 73, 64, 69,
73, 57, 73, 79,
64, 53, 66, 70,
50, 70, 54, 57,
59, 53, 55, 54,
63, 75, 66, 52,
47, 46, 54, 46,
53, 50, 57, 47,
44, 58, 42, 54,
47, 52, 55, 47,
50, 39, 40, 47,
43, 47, 46, 41,
39, 53, 41, 48,
39, 52, 45, 44,
45, 37, 49, 47,
43, 42, 39, 33,
48, 50, 56, 48,
36, 34, 34, 41,
31, 34, 31, 44,
33, 38, 42, 35,
39, 31, 34, 38,
37, 40, 47, 39,
25, 45, 34, 32,
31, 30, 42, 36,
36, 30, 48, 34,
29, 31, 26, 38,
35, 31, 28, 37,
26, 39, 30, 27,
26, 33, 42, 27,
23, 24, 29, 26,
39, 37, 35, 36,
31, 28, 22, 38,
37, 22, 34, 25,
22, 29, 27, 19,
19, 33, 23, 21,
32, 33, 25, 32,
24, 30, 21, 23,
29, 30, 25, 21,
17, 25, 21, 39,
25, 23, 15, 21,
28, 23, 26, 18,
24, 27, 23, 24,
20, 22, 21, 21,
28, 17, 25, 21,
19, 19, 18, 14,
20, 15, 15, 25,
21, 22, 13, 29,
21, 14, 13, 20,
10, 13, 7, 17,
15, 22, 15, 15,
8, 14, 19, 22,
17, 21, 14, 19,
17, 12, 14, 13,
12, 18, 17, 16,
9, 12, 13, 12,
12, 8, 14, 9,
14, 10, 3, 14,
12, 18, 8, 12,
21, 16, 13, 10,
13, 10, 13, 18,
11, 10, 12, 15,
8, 4, 17, 9,
10, 10, 11, 15,
12, 14, 8, 13,
10, 10, 12, 5,
6, 4, 12, 6,
5, 8, 5, 17,
8, 8, 6, 12,
4, 7, 6, 7,
8, 9, 9, 4,
10, 8, 5, 9,
1, 7, 8, 9,
8, 3, 6, 9,
4, 4, 9, 4,
3, 5, 3, 6,
4, 3, 2, 3,
7, 1, 3, 5,
4, 6, 5, 7,
3, 4, 6, 2,
1, 3, 3, 6,
5, 2, 8, 3,
1, 5, 5, 2,
2, 4, 3, 8,
4, 4, 4, 4,
0, 2, 4, 3,
0, 3, 0, 3,
2, 2, 5, 2,
3, 2, 1, 4,
3, 1, 1, 2,
3, 1, 5, 2,
1, 1, 1, 0,
1, 0, 2, 1,
2, 0, 2, 1,
2, 1, 3, 1,
0, 0, 0, 0,
0, 0, 2, 2,
2, 1, 0, 1,
0, 0, 0, 1,
0, 0, 0, 0,
0, 0, 0, 0,
0, 0, 0, 0,
0, 0, 0, 0,
0, 0, 0, 0,
0, 0, 0, 0,
0, 0, 0, 0,
0, 0, 0, 0,
0, 0, 0, 0,
0, 0, 0, 0,
0, 0, 0, 0,
0, 0, 0, 0,
0, 0, 0, 0,
0, 0, 0, 0,
0, 0, 0, 0,
0, 0, 0, 0,
0, 0, 0, 0,
0, 0, 0, 0,
0, 0, 0, 0,
0, 0, 0, 0,
0, 0, 0, 0,
0, 0, 0, 0,
0, 0, 0, 0,
0, 0, 0, 0,
0, 0, 0, 0,
0, 0, 0, 0,
0, 0, 0, 0,
0, 0, 0, 0,
0, 0, 0, 0,
0, 0, 0, 0,
0, 0, 0, 0,
0, 0, 0, 0,
0, 0, 0, 0,
0, 0, 0, 0,
0, 0, 0, 0,
0, 0, 0, 0,
0, 0, 0, 0,
0, 0, 0, 0,
0, 0, 0, 0,
0, 0, 0, 0,
0, 0, 0, 0,
0, 0, 0, 0,
0, 0, 0, 0,
0, 0, 0, 0,
0, 0, 0, 0,
0, 0, 0, 0,
0, 0, 0, 0,
0, 0, 0, 0,
0, 0, 0, 0,
0, 0, 0, 0,
0, 0, 0, 0,
0, 0, 0, 0,
0, 0, 0, 0,
0, 0, 0, 0,
0, 0, 0, 0,
0, 0, 0, 0,
0, 0, 0, 0,
0, 0, 0, 0,
0, 0, 0, 0,
0, 0, 0, 0,
0, 0, 0, 0,
0, 0, 0, 0,
0, 0, 0, 0,
#ENDOFDATA   :