File: dtsa2/DemoSpectra/K411-K412/K412 std.msa
#FORMAT      : EMSA/MAS Spectral Data File
#VERSION     : 1.0
#TITLE       : Bruker AXS spectrum K412
#DATE        : 29-JUL-2008
#TIME        : 10:38
#OWNER       : Bruker AXS
#NPOINTS     : 4096
#NCOLUMNS    : 4
#XUNITS      : eV
#YUNITS      : counts
#DATATYPE    : Y
#XPERCHAN    : 5.00409
#OFFSET      : -477.824
#BEAMKV      : 15
#SIGNALTYPE  : EDS
#ELEVANGLE   : 40
#AZIMANGLE   : 180
#LIVETIME    : 59.351
#REALTIME    : 63.12
#PROBECUR    : 2.5
#TAUWIND     : 0
#TDEADLYR    : 0.00001
#TACTLYR     : 0.045
#TALWIND     : 0.003
#CHOFFSET    : 0.0
#XLABEL      : Energy (eV)
#YLABEL      : Counts
#EDSDET      : SDDUTW
##D2STDCMP   : K412,(O:42.758),(Mg:11.6567),(Al:4.9062),(Si:21.1982),(Ca:10.899),(Fe:7.742)
#SPECTRUM    :
0, 0, 0, 0,
0, 0, 0, 0,
0, 0, 0, 0,
0, 0, 0, 0,
0, 0, 0, 0,
0, 6, 9, 47,
102570, 88788, 68028, 47789,
10, 33, 55, 70,
66, 64, 63, 61,
257, 297, 342, 388,
212, 192, 201, 200,
240, 246, 274, 299,
5207, 7012, 9151, 11551,
3781, 2552, 1583, 974,
307, 312, 395, 402,
1099, 970, 841, 750,
319, 413, 301, 365,
384, 385, 365, 359,
431, 400, 418, 411,
516, 534, 513, 537,
576, 555, 547, 602,
2677, 3418, 4264, 5293,
8267, 6987, 5826, 4874,
514, 533, 519, 498,
1834, 2224, 2690, 3104,
2943, 2521, 2156, 1887,
573, 506, 491, 492,
3602, 4631, 5876, 7460,
15623, 14082, 12280, 10714,
1240, 1064, 1030, 901,
384, 346, 320, 349,
347, 312, 304, 312,
320, 343, 341, 321,
294, 297, 324, 303,
318, 324, 321, 284,
303, 308, 314, 320,
255, 284, 319, 299,
255, 304, 293, 308,
295, 273, 274, 300,
250, 261, 273, 266,
289, 286, 285, 275,
235, 266, 278, 258,
263, 239, 245, 283,
277, 241, 249, 259,
261, 255, 245, 259,
257, 244, 218, 254,
229, 247, 223, 223,
225, 217, 207, 214,
236, 210, 231, 240,
199, 203, 235, 219,
225, 238, 240, 237,
582, 798, 845, 1028,
4242, 4303, 4364, 4370,
1388, 1193, 1009, 864,
220, 212, 223, 191,
227, 250, 305, 296,
650, 634, 655, 653,
337, 343, 301, 248,
158, 152, 157, 173,
158, 155, 151, 160,
140, 135, 144, 140,
138, 154, 132, 131,
134, 154, 145, 136,
155, 123, 141, 137,
138, 148, 131, 122,
121, 135, 108, 108,
118, 125, 132, 113,
145, 114, 134, 118,
119, 115, 112, 128,
111, 117, 119, 148,
97, 119, 127, 99,
97, 116, 100, 130,
92, 107, 117, 93,
124, 103, 115, 115,
112, 100, 112, 98,
102, 100, 98, 96,
82, 109, 83, 91,
111, 122, 84, 101,
71, 110, 96, 71,
87, 97, 79, 100,
90, 81, 88, 103,
95, 79, 85, 83,
82, 75, 78, 97,
102, 95, 81, 81,
99, 103, 110, 116,
397, 438, 502, 550,
853, 831, 855, 793,
314, 306, 278, 233,
93, 80, 69, 83,
101, 74, 81, 74,
85, 65, 71, 70,
62, 78, 59, 66,
77, 75, 75, 66,
98, 106, 87, 94,
181, 162, 190, 148,
123, 99, 95, 104,
63, 63, 61, 57,
54, 49, 66, 47,
59, 67, 52, 57,
62, 63, 66, 36,
53, 54, 49, 50,
58, 49, 50, 41,
34, 55, 42, 53,
48, 42, 66, 54,
48, 52, 48, 48,
55, 38, 43, 42,
41, 48, 57, 40,
36, 39, 49, 48,
38, 57, 45, 41,
50, 45, 49, 46,
50, 42, 33, 53,
35, 42, 46, 41,
43, 43, 43, 29,
33, 48, 45, 46,
34, 35, 27, 35,
41, 39, 42, 33,
32, 29, 36, 48,
36, 34, 32, 36,
27, 36, 40, 36,
39, 48, 27, 42,
37, 28, 33, 30,
30, 26, 21, 35,
25, 20, 35, 29,
27, 31, 22, 23,
29, 33, 26, 33,
28, 25, 30, 35,
23, 24, 30, 23,
19, 25, 25, 31,
18, 35, 26, 36,
32, 26, 27, 27,
19, 20, 21, 22,
23, 17, 26, 26,
26, 24, 22, 16,
30, 28, 28, 21,
16, 18, 30, 27,
23, 16, 14, 27,
13, 23, 20, 28,
15, 24, 22, 23,
20, 22, 24, 19,
18, 18, 22, 19,
24, 18, 26, 18,
24, 16, 14, 12,
18, 18, 24, 22,
14, 12, 12, 15,
13, 9, 13, 12,
20, 10, 22, 15,
11, 19, 16, 15,
16, 11, 23, 13,
15, 15, 18, 8,
10, 23, 8, 12,
12, 16, 13, 17,
14, 17, 13, 10,
14, 11, 13, 14,
15, 10, 17, 12,
14, 9, 17, 9,
16, 9, 10, 10,
6, 11, 11, 5,
16, 7, 15, 12,
10, 1, 5, 6,
11, 8, 11, 9,
10, 7, 11, 11,
8, 10, 7, 12,
10, 1, 6, 10,
9, 7, 8, 6,
7, 5, 9, 4,
12, 11, 9, 7,
9, 9, 4, 6,
9, 5, 7, 7,
5, 4, 8, 5,
8, 2, 6, 5,
1, 2, 2, 9,
6, 5, 6, 4,
6, 3, 4, 6,
6, 8, 5, 4,
5, 3, 6, 3,
1, 8, 3, 5,
3, 5, 2, 3,
1, 2, 2, 3,
2, 3, 5, 5,
3, 2, 1, 3,
4, 5, 0, 1,
1, 3, 1, 1,
4, 1, 4, 3,
2, 0, 2, 2,
2, 3, 1, 0,
0, 2, 1, 5,
1, 1, 1, 1,
1, 1, 0, 1,
0, 4, 0, 0,
1, 2, 0, 0,
2, 2, 1, 0,
0, 0, 0, 1,
0, 1, 0, 1,
0, 0, 0, 0,
0, 0, 0, 0,
0, 0, 0, 0,
0, 0, 0, 0,
0, 0, 0, 0,
0, 0, 0, 0,
0, 0, 0, 0,
0, 0, 0, 0,
0, 0, 0, 0,
0, 0, 0, 0,
0, 0, 0, 0,
0, 0, 0, 0,
0, 0, 0, 0,
0, 0, 0, 0,
0, 0, 0, 0,
0, 0, 0, 0,
0, 0, 0, 0,
0, 0, 0, 0,
0, 0, 0, 0,
0, 0, 0, 0,
0, 0, 0, 0,
0, 0, 0, 0,
0, 0, 0, 0,
0, 0, 0, 0,
0, 0, 0, 0,
0, 0, 0, 0,
0, 0, 0, 0,
0, 0, 0, 0,
0, 0, 0, 0,
0, 0, 0, 0,
0, 0, 0, 0,
0, 0, 0, 0,
0, 0, 0, 0,
0, 0, 0, 0,
0, 0, 0, 0,
0, 0, 0, 0,
0, 0, 0, 0,
0, 0, 0, 0,
0, 0, 0, 0,
0, 0, 0, 0,
0, 0, 0, 0,
0, 0, 0, 0,
0, 0, 0, 0,
0, 0, 0, 0,
0, 0, 0, 0,
0, 0, 0, 0,
0, 0, 0, 0,
0, 0, 0, 0,
0, 0, 0, 0,
0, 0, 0, 0,
0, 0, 0, 0,
0, 0, 0, 0,
0, 0, 0, 0,
0, 0, 0, 0,
0, 0, 0, 0,
0, 0, 0, 0,
0, 0, 0, 0,
0, 0, 0, 0,
0, 0, 0, 0,
0, 0, 0, 0,
0, 0, 0, 0,
0, 0, 0, 0,
0, 0, 0, 0,
0, 0, 0, 0,
#ENDOFDATA   :