File: dtsa2/DemoSpectra/K411-K412/MgO std.msa
#FORMAT      : EMSA/MAS Spectral Data File
#VERSION     : 1.0
#TITLE       : Bruker AXS spectrum MgO
#DATE        : 29-JUL-2008
#TIME        : 10:12
#OWNER       : Bruker AXS
#NPOINTS     : 4096
#NCOLUMNS    : 4
#XUNITS      : eV
#YUNITS      : counts
#DATATYPE    : Y
#XPERCHAN    : 5.00409
#OFFSET      : -477.824
#BEAMKV      : 15
#SIGNALTYPE  : EDS
#ELEVANGLE   : 40
#AZIMANGLE   : 180
#LIVETIME    : 59.349
#REALTIME    : 63.851
#PROBECUR    : 2.5
#TAUWIND     : 0
#TDEADLYR    : 0.00001
#TACTLYR     : 0.045
#TALWIND     : 0.003
#CHOFFSET    : 0.0
#XLABEL      : Energy (eV)
#YLABEL      : Counts
#EDSDET      : SDDUTW
##D2STDCMP   : MgO,(O:39.6964),(Mg:60.3036),2.95
#SPECTRUM    :
0, 0, 0, 0,
0, 0, 0, 0,
0, 0, 0, 0,
0, 0, 0, 0,
0, 0, 0, 0,
0, 5, 12, 60,
142763, 122113, 94737, 66221,
18, 48, 81, 102,
75, 73, 74, 78,
278, 329, 387, 446,
168, 163, 148, 150,
311, 337, 355, 380,
7005, 9401, 12210, 15552,
5283, 3344, 2193, 1244,
229, 213, 269, 268,
304, 268, 321, 301,
379, 419, 361, 439,
454, 445, 456, 503,
499, 560, 571, 571,
673, 647, 725, 694,
1061, 1084, 1050, 1101,
13453, 17933, 24047, 30436,
48230, 40789, 33224, 26190,
513, 426, 401, 364,
276, 247, 257, 273,
268, 249, 238, 276,
276, 263, 263, 260,
264, 307, 301, 323,
300, 355, 326, 323,
269, 284, 262, 282,
281, 262, 273, 237,
292, 249, 273, 222,
247, 259, 303, 258,
258, 259, 288, 272,
266, 241, 245, 256,
249, 258, 245, 261,
229, 247, 246, 292,
284, 296, 293, 314,
236, 263, 223, 246,
258, 224, 235, 220,
216, 197, 238, 213,
215, 221, 193, 246,
199, 210, 223, 204,
196, 209, 199, 222,
234, 189, 190, 190,
172, 190, 202, 179,
209, 204, 195, 186,
192, 189, 156, 167,
213, 144, 180, 200,
182, 182, 190, 191,
181, 165, 182, 154,
161, 184, 171, 172,
178, 171, 190, 169,
139, 185, 149, 161,
128, 137, 163, 145,
129, 135, 150, 153,
132, 147, 144, 155,
159, 163, 136, 117,
142, 139, 156, 134,
133, 155, 136, 112,
121, 139, 122, 130,
127, 127, 135, 122,
130, 128, 98, 115,
115, 135, 115, 114,
119, 108, 117, 137,
116, 132, 111, 115,
109, 107, 121, 99,
109, 110, 105, 101,
89, 96, 121, 109,
98, 96, 117, 97,
89, 98, 79, 126,
92, 107, 85, 100,
102, 98, 103, 109,
88, 89, 96, 95,
88, 94, 76, 95,
70, 93, 77, 83,
67, 95, 75, 95,
66, 84, 71, 76,
74, 61, 70, 81,
86, 82, 92, 69,
68, 67, 76, 61,
81, 82, 83, 71,
68, 73, 82, 62,
49, 70, 76, 74,
69, 43, 69, 67,
70, 68, 67, 83,
50, 60, 74, 61,
59, 61, 71, 64,
65, 48, 55, 56,
70, 65, 83, 70,
54, 46, 45, 56,
54, 60, 60, 46,
56, 63, 45, 54,
43, 41, 47, 63,
55, 53, 53, 66,
55, 48, 46, 45,
63, 43, 49, 67,
51, 39, 46, 46,
45, 44, 45, 50,
48, 39, 54, 56,
36, 48, 36, 40,
46, 42, 50, 39,
40, 35, 39, 35,
47, 37, 30, 41,
48, 45, 19, 44,
43, 36, 41, 41,
39, 34, 47, 37,
34, 47, 48, 41,
38, 36, 36, 37,
37, 42, 37, 34,
38, 32, 24, 30,
32, 38, 29, 27,
37, 22, 30, 29,
33, 27, 28, 24,
25, 40, 26, 25,
37, 31, 34, 32,
30, 34, 39, 32,
29, 28, 30, 30,
32, 28, 25, 25,
25, 27, 32, 27,
24, 27, 24, 29,
22, 19, 18, 20,
22, 12, 36, 29,
22, 35, 26, 24,
23, 17, 24, 26,
23, 28, 26, 17,
19, 26, 18, 29,
21, 18, 25, 24,
25, 21, 24, 19,
12, 23, 21, 21,
24, 17, 24, 25,
18, 20, 7, 20,
20, 21, 19, 19,
14, 10, 19, 16,
14, 20, 16, 17,
12, 21, 19, 18,
25, 13, 22, 18,
15, 19, 16, 17,
18, 18, 11, 13,
15, 18, 11, 17,
13, 11, 9, 16,
25, 14, 11, 13,
11, 6, 11, 15,
9, 8, 15, 10,
19, 16, 16, 11,
16, 11, 16, 15,
14, 12, 14, 14,
7, 10, 12, 14,
11, 12, 10, 10,
8, 14, 15, 10,
14, 8, 13, 11,
13, 16, 12, 8,
10, 7, 7, 6,
6, 3, 8, 9,
7, 8, 13, 5,
13, 5, 8, 7,
13, 10, 11, 11,
13, 8, 7, 8,
4, 7, 8, 11,
8, 6, 7, 5,
3, 10, 5, 2,
8, 4, 5, 7,
6, 6, 7, 6,
4, 6, 5, 7,
6, 3, 6, 4,
4, 3, 5, 5,
4, 6, 7, 6,
4, 4, 3, 5,
2, 3, 6, 7,
6, 6, 4, 2,
2, 4, 4, 2,
3, 4, 4, 4,
2, 1, 5, 10,
2, 4, 1, 6,
1, 1, 0, 1,
0, 2, 2, 4,
2, 2, 3, 8,
2, 2, 7, 1,
1, 2, 7, 4,
1, 3, 2, 3,
5, 2, 0, 0,
3, 1, 3, 1,
0, 3, 0, 0,
1, 2, 1, 1,
2, 0, 4, 1,
0, 0, 0, 1,
0, 1, 1, 0,
0, 0, 1, 0,
0, 1, 3, 1,
0, 0, 0, 0,
1, 0, 0, 1,
0, 0, 1, 1,
1, 1, 0, 0,
0, 0, 0, 1,
0, 0, 0, 0,
0, 0, 0, 1,
0, 0, 0, 0,
0, 0, 0, 0,
0, 0, 0, 0,
0, 0, 0, 0,
0, 0, 0, 0,
0, 0, 0, 0,
0, 0, 0, 0,
0, 0, 0, 0,
0, 0, 0, 0,
0, 0, 0, 0,
0, 0, 0, 0,
0, 0, 0, 0,
0, 0, 0, 0,
0, 0, 0, 0,
0, 0, 0, 0,
0, 0, 0, 0,
0, 0, 0, 0,
0, 0, 0, 0,
0, 0, 0, 0,
0, 0, 0, 0,
0, 0, 0, 0,
0, 0, 0, 0,
0, 0, 0, 0,
0, 0, 0, 0,
0, 0, 0, 0,
0, 0, 0, 0,
0, 0, 0, 0,
0, 0, 0, 0,
0, 0, 0, 0,
0, 0, 0, 0,
0, 0, 0, 0,
0, 0, 0, 0,
0, 0, 0, 0,
0, 0, 0, 0,
0, 0, 0, 0,
0, 0, 0, 0,
0, 0, 0, 0,
0, 0, 0, 0,
0, 0, 0, 0,
0, 0, 0, 0,
0, 0, 0, 0,
0, 0, 0, 0,
0, 0, 0, 0,
0, 0, 0, 0,
0, 0, 0, 0,
0, 0, 0, 0,
0, 0, 0, 0,
0, 0, 0, 0,
0, 0, 0, 0,
0, 0, 0, 0,
0, 0, 0, 0,
0, 0, 0, 0,
0, 0, 0, 0,
0, 0, 0, 0,
0, 0, 0, 0,
0, 0, 0, 0,
0, 0, 0, 0,
0, 0, 0, 0,
0, 0, 0, 0,
0, 0, 0, 0,
0, 0, 0, 0,
#ENDOFDATA   :