File: dtsa2/msa/Cu-15-Unk.msa
#FORMAT      : EMSA/MAS Spectral Data File
#VERSION     : 1.0
#TITLE       : CuUnk
#DATE        : 18-DEC-2013
#TIME        : 02:03
#OWNER       : Unknown
#NPOINTS     : 2048
#NCOLUMNS    : 1
#XUNITS      : eV
#YUNITS      : counts
#DATATYPE    : Y
#XPERCHAN    : 10
#OFFSET      : 0
#BEAMKV      : 15
#SIGNALTYPE  : EDS
#ELEVANGLE   : 35
#AZIMANGLE   : 225
#LIVETIME    : 100
#PROBECUR    : 1
#TAUWIND     : 0
#TDEADLYR    : 0.00001
#TACTLYR     : 0.5
#TALWIND     : 0.004
#CHOFFSET    : 0.0
#XLABEL      : Energy (eV)
#YLABEL      : Counts
#EDSDET      : SIUTW
##SPECIMEN   : CuUnk
##DET_HASH   : 8bd54cba-bdb1-2809-7cdf-aba568fbcc57
##CALIB_HASH : f5ad288f-0449-f7ce-773b-4fa4d7b7a089
#SPECTRUM    :
0,
0,
0,
29,
53,
49,
78,
138,
70,
70,
116,
419,
717,
6627,
1990,
85,
73,
95,
82,
87,
101,
90,
134,
115,
148,
141,
147,
157,
122,
136,
168,
133,
137,
131,
132,
125,
111,
132,
130,
125,
139,
124,
110,
103,
107,
129,
130,
103,
93,
102,
118,
107,
101,
113,
97,
100,
88,
94,
99,
82,
95,
95,
75,
66,
78,
78,
71,
89,
88,
71,
65,
56,
62,
58,
70,
72,
73,
72,
72,
55,
53,
58,
52,
58,
60,
56,
57,
46,
51,
53,
60,
54,
50,
47,
31,
46,
35,
40,
30,
34,
43,
41,
42,
45,
38,
38,
38,
37,
34,
41,
47,
36,
56,
195,
859,
1222,
601,
112,
35,
31,
29,
24,
27,
28,
44,
38,
111,
176,
107,
45,
15,
24,
15,
16,
19,
28,
20,
17,
19,
21,
16,
14,
16,
20,
18,
20,
18,
24,
14,
13,
17,
9,
17,
17,
20,
13,
13,
11,
14,
12,
14,
15,
14,
17,
9,
7,
8,
8,
10,
11,
6,
6,
0,
0,
0,
0,
0,
0,
0,
0,
0,
0,
0,
0,
0,
0,
0,
0,
0,
0,
0,
0,
0,
0,
0,
0,
0,
0,
0,
0,
0,
0,
0,
0,
0,
0,
0,
0,
0,
0,
0,
0,
0,
0,
0,
0,
0,
0,
0,
0,
0,
0,
0,
0,
0,
0,
0,
0,
0,
0,
0,
0,
0,
0,
0,
0,
0,
0,
0,
0,
0,
0,
0,
0,
0,
0,
0,
0,
0,
0,
0,
0,
0,
0,
0,
0,
0,
0,
0,
0,
0,
0,
0,
0,
0,
0,
0,
0,
0,
0,
0,
0,
0,
0,
0,
0,
0,
0,
0,
0,
0,
0,
0,
0,
0,
0,
0,
0,
0,
0,
0,
0,
0,
0,
#ENDOFDATA   :