File: dtsa2/msa/Cu-15-Std.msa
#FORMAT      : EMSA/MAS Spectral Data File
#VERSION     : 1.0
#TITLE       : CuStd
#DATE        : 18-DEC-2013
#TIME        : 01:49
#OWNER       : Unknown
#NPOINTS     : 2048
#NCOLUMNS    : 1
#XUNITS      : eV
#YUNITS      : counts
#DATATYPE    : Y
#XPERCHAN    : 10
#OFFSET      : 0
#BEAMKV      : 15
#SIGNALTYPE  : EDS
#ELEVANGLE   : 35
#AZIMANGLE   : 225
#LIVETIME    : 100
#PROBECUR    : 1
#TAUWIND     : 0
#TDEADLYR    : 0.00001
#TACTLYR     : 0.5
#TALWIND     : 0.004
#CHOFFSET    : 0.0
#XLABEL      : Energy (eV)
#YLABEL      : Counts
#EDSDET      : SIUTW
##SPECIMEN   : CuStd
##D2STDCMP   : Pure Cu,(Cu:100.0)
##DET_HASH   : 8bd54cba-bdb1-2809-7cdf-aba568fbcc57
##CALIB_HASH : f5ad288f-0449-f7ce-773b-4fa4d7b7a089
#SPECTRUM    :
0,
0,
2,
26,
69,
55,
81,
168,
67,
81,
115,
420,
778,
6517,
1886,
85,
62,
69,
68,
74,
107,
102,
117,
123,
135,
131,
140,
122,
117,
145,
150,
143,
148,
131,
156,
134,
143,
141,
152,
127,
109,
125,
131,
128,
117,
134,
112,
109,
110,
115,
119,
108,
120,
111,
88,
84,
94,
85,
98,
103,
87,
80,
99,
91,
52,
85,
74,
79,
96,
61,
75,
61,
67,
61,
64,
68,
54,
66,
70,
54,
66,
44,
64,
70,
45,
46,
54,
45,
46,
60,
51,
48,
45,
43,
51,
40,
53,
40,
45,
39,
55,
40,
34,
40,
32,
38,
35,
40,
34,
30,
45,
31,
41,
217,
862,
1241,
545,
109,
33,
31,
29,
27,
40,
29,
22,
44,
93,
203,
128,
49,
26,
19,
23,
25,
19,
20,
17,
16,
20,
17,
19,
17,
16,
16,
15,
20,
14,
21,
18,
17,
14,
18,
15,
19,
12,
16,
15,
10,
11,
16,
14,
6,
12,
14,
11,
13,
13,
13,
11,
13,
12,
11,
0,
0,
0,
0,
0,
0,
0,
0,
0,
0,
0,
0,
0,
0,
0,
0,
0,
0,
0,
0,
0,
0,
0,
0,
0,
0,
0,
0,
0,
0,
0,
0,
0,
0,
0,
0,
0,
0,
0,
0,
0,
0,
0,
0,
0,
0,
0,
0,
0,
0,
0,
0,
0,
0,
0,
0,
0,
0,
0,
0,
0,
0,
0,
0,
0,
0,
0,
0,
0,
0,
0,
0,
0,
0,
0,
0,
0,
0,
0,
0,
0,
0,
0,
0,
0,
0,
0,
0,
0,
0,
0,
0,
0,
0,
0,
0,
0,
0,
0,
0,
0,
0,
0,
0,
0,
0,
0,
0,
0,
0,
0,
0,
0,
0,
0,
0,
0,
0,
0,
0,
0,
0,
#ENDOFDATA   :