File: dtsa2/detectors/2-FEI Sirion/Oxford-p6-05eV-4K/2013-08-08-FC-20kV-Hole.msa
#FORMAT      : EMSA/MAS Spectral Data File
#VERSION     : 1.0
#TITLE       : 2014-08-08-FC-20kV-Hole
#DATE        : 08-AUG-2014
#TIME        : 10:05
#OWNER       : John Minter
#NPOINTS     : 4096
#NCOLUMNS    : 1
#XUNITS      : eV
#YUNITS      : counts
#DATATYPE    : Y
#XPERCHAN    : 5.00316
#OFFSET      : -203.446
#BEAMKV      : 20
#SIGNALTYPE  : EDS
#ELEVANGLE   : 35
#AZIMANGLE   : 225
#LIVETIME    : 100.8
#REALTIME    : 102.27
#PROBECUR    : 0.81
#TAUWIND     : 0
#TDEADLYR    : 0
#TACTLYR     : 0.045
#TALWIND     : 0.003
#CHOFFSET    : 0.0
#XLABEL      : Energy (eV)
#YLABEL      : Counts
#XPOSITION   : -3.565
#YPOSITION   : 1.404
#ZPOSITION   : 5
#EDSDET      : SDDUTW
#MAGCAM      : 10000
##SPECIMEN   : 2013-08-08-FC-20kV-Hole
##DET_HASH   : 9e704189-5425-fb2b-8d73-cedcd0f1a991
##CALIB_HASH : 01c6b2a9-42a8-272c-ded3-cc8c706f70d4
#SPECTRUM    :
0,
0,
0,
0,
0,
3,
1,
16,
0,
1,
1,
0,
0,
1,
2,
0,
0,
1,
0,
2,
1,
0,
2,
2,
5,
4,
5,
2,
1,
2,
2,
6,
25,
21,
4,
1,
2,
0,
0,
1,
1,
0,
1,
1,
1,
1,
1,
0,
0,
0,
1,
0,
1,
0,
1,
1,
1,
2,
0,
1,
1,
1,
0,
1,
0,
1,
0,
0,
0,
0,
1,
1,
0,
1,
1,
0,
2,
0,
0,
1,
0,
0,
2,
0,
1,
0,
0,
0,
0,
0,
0,
0,
1,
1,
0,
0,
0,
0,
0,
1,
2,
0,
0,
0,
0,
0,
0,
1,
1,
0,
1,
0,
0,
0,
1,
0,
0,
1,
1,
2,
1,
1,
0,
0,
0,
0,
0,
1,
0,
0,
1,
1,
1,
0,
1,
2,
0,
0,
2,
0,
1,
0,
1,
0,
1,
0,
0,
0,
0,
0,
0,
0,
0,
1,
0,
0,
0,
0,
1,
0,
1,
1,
0,
0,
0,
1,
0,
0,
0,
1,
0,
0,
0,
0,
0,
0,
0,
0,
0,
0,
0,
1,
0,
0,
0,
1,
1,
0,
0,
0,
1,
0,
0,
0,
0,
0,
0,
0,
0,
0,
0,
0,
0,
0,
0,
0,
0,
0,
0,
0,
0,
0,
0,
0,
0,
0,
0,
0,
0,
0,
0,
0,
0,
0,
0,
0,
0,
0,
0,
0,
0,
0,
0,
0,
0,
0,
0,
0,
0,
0,
0,
0,
0,
0,
0,
0,
0,
0,
0,
0,
0,
0,
0,
0,
0,
0,
0,
0,
0,
0,
0,
0,
0,
0,
0,
0,
0,
0,
0,
0,
0,
0,
0,
0,
0,
0,
0,
0,
0,
0,
0,
0,
0,
0,
0,
0,
0,
0,
0,
0,
0,
0,
0,
0,
#ENDOFDATA   :