File: dtsa2/detectors/2-FEI Sirion/Cu-15kV-P4-20-4K-250s.txt
#FORMAT      : EMSA/MAS Spectral Data File
#VERSION     : 1.0
#TITLE       : Cu-15kV-P4-20-4K-250s
#DATE        : 07-NOV-2016
#TIME        : 09:56
#OWNER       :
#NPOINTS     : 4096.0
#NCOLUMNS    : 1.0
#XUNITS      : keV
#YUNITS      : counts
#DATATYPE    : XY
#XPERCHAN    : 0.005
#OFFSET      : -0.2
#SIGNALTYPE  : EDS
#CHOFFSET    : 40.0
#LIVETIME    : 250.0
#REALTIME    : 357.18
#BEAMKV      : 15.0
#PROBECUR    : 0.0
#MAGCAM      : 2000.0
#XTILTSTGE   : 0.0
#AZIMANGLE   : 0.0
#ELEVANGLE   : 35.0
#XPOSITION mm: 0.1850
#YPOSITION mm: -0.7430
#ZPOSITION mm: 3.4990
##OXINSTPT   : 4
##OXINSTSTROB: 48.08
##OXINSTELEMS: 6,29,8,13
##OXINSTLABEL: 6, 0.277, C
##OXINSTLABEL: 29, 8.048, Cu
##OXINSTLABEL: 29, 8.905, Cu
##OXINSTLABEL: 29, 0.930, Cu
##OXINSTLABEL: 29, 0.832, Cu
##OXINSTLABEL: 29, 0.811, Cu
##OXINSTLABEL: 8, 0.525, O
##OXINSTLABEL: 13, 1.487, Al
#SPECTRUM    : Spectral Data Starts Here
-0.20000, 0.0
-0.13000, 0.0
-0.06000, 10.0
0.01000, 3905.0
0.08000, 1554.0
0.15000, 1018.0
0.22000, 1550.0
0.29000, 3832.0
0.36000, 1532.0
0.43000, 2561.0
0.50000, 5064.0
0.57000, 4278.0
0.64000, 5345.0
0.71000, 7231.0
0.78000, 24599.0
0.85000, 35323.0
0.92000, 327146.0
0.99000, 60544.0
1.06000, 3062.0
1.13000, 2212.0
1.20000, 2407.0
1.27000, 2746.0
1.34000, 2629.0
1.41000, 3013.0
1.48000, 6736.0
1.55000, 3877.0
1.62000, 3314.0
1.69000, 3537.0
1.76000, 3931.0
1.83000, 4857.0
1.90000, 4805.0
1.97000, 3538.0
2.04000, 3628.0
2.11000, 3627.0
2.18000, 3585.0
2.25000, 3581.0
2.32000, 3738.0
2.39000, 3608.0
2.46000, 3659.0
2.53000, 3560.0
2.60000, 3596.0
2.67000, 3652.0
2.74000, 3557.0
2.81000, 3527.0
2.88000, 3443.0
2.95000, 3371.0
3.02000, 3312.0
3.09000, 3382.0
3.16000, 3224.0
3.23000, 3234.0
3.30000, 3200.0
3.37000, 3152.0
3.44000, 3033.0
3.51000, 2991.0
3.58000, 3003.0
3.65000, 2957.0
3.72000, 2855.0
3.79000, 2741.0
3.86000, 2693.0
3.93000, 2692.0
4.00000, 2606.0
4.07000, 2595.0
4.14000, 2547.0
4.21000, 2484.0
4.28000, 2427.0
4.35000, 2352.0
4.42000, 2311.0
4.49000, 2226.0
4.56000, 2202.0
4.63000, 2199.0
4.70000, 2195.0
4.77000, 2120.0
4.84000, 2106.0
4.91000, 2043.0
4.98000, 1943.0
5.05000, 1980.0
5.12000, 1950.0
5.19000, 1896.0
5.26000, 1913.0
5.33000, 1838.0
5.40000, 1785.0
5.47000, 1773.0
5.54000, 1760.0
5.61000, 1613.0
5.68000, 1651.0
5.75000, 1638.0
5.82000, 1636.0
5.89000, 1544.0
5.96000, 1559.0
6.03000, 1500.0
6.10000, 1474.0
6.17000, 1472.0
6.24000, 1485.0
6.31000, 1494.0
6.38000, 1419.0
6.45000, 1332.0
6.52000, 1408.0
6.59000, 1249.0
6.66000, 1306.0
6.73000, 1248.0
6.80000, 1229.0
6.87000, 1253.0
6.94000, 1201.0
7.01000, 1133.0
7.08000, 1132.0
7.15000, 1181.0
7.22000, 1147.0
7.29000, 1062.0
7.36000, 1101.0
7.43000, 1112.0
7.50000, 1050.0
7.57000, 999.0
7.64000, 1019.0
7.71000, 1081.0
7.78000, 1042.0
7.85000, 1436.0
7.92000, 7164.0
7.99000, 27783.0
8.06000, 35310.0
8.13000, 13707.0
8.20000, 2441.0
8.27000, 980.0
8.34000, 899.0
8.41000, 903.0
8.48000, 837.0
8.55000, 830.0
8.62000, 878.0
8.69000, 927.0
8.76000, 1401.0
8.83000, 3638.0
8.90000, 5712.0
8.97000, 4016.0
9.04000, 1561.0
9.11000, 798.0
9.18000, 655.0
9.25000, 633.0
9.32000, 568.0
9.39000, 563.0
9.46000, 563.0
9.53000, 595.0
9.60000, 569.0
9.67000, 562.0
9.74000, 619.0
9.81000, 620.0
9.88000, 548.0
9.95000, 523.0
10.02000, 496.0
10.09000, 482.0
10.16000, 494.0
10.23000, 505.0
10.30000, 451.0
10.37000, 493.0
10.44000, 463.0
10.51000, 445.0
10.58000, 470.0
10.65000, 456.0
10.72000, 434.0
10.79000, 400.0
10.86000, 405.0
10.93000, 382.0
11.00000, 400.0
11.07000, 371.0
11.14000, 355.0
11.21000, 342.0
11.28000, 337.0
11.35000, 332.0
11.42000, 336.0
11.49000, 317.0
11.56000, 319.0
11.63000, 300.0
11.70000, 310.0
11.77000, 300.0
11.84000, 279.0
11.91000, 256.0
11.98000, 254.0
12.05000, 280.0
12.12000, 259.0
12.19000, 234.0
12.26000, 251.0
12.33000, 274.0
12.40000, 231.0
12.47000, 208.0
12.54000, 225.0
12.61000, 208.0
12.68000, 210.0
12.75000, 186.0
12.82000, 200.0
12.89000, 176.0
12.96000, 170.0
13.03000, 155.0
13.10000, 164.0
13.17000, 131.0
13.24000, 154.0
13.31000, 149.0
13.38000, 132.0
13.45000, 119.0
13.52000, 108.0
13.59000, 122.0
13.66000, 114.0
13.73000, 111.0
13.80000, 98.0
13.87000, 95.0
13.94000, 91.0
14.01000, 77.0
14.08000, 87.0
14.15000, 62.0
14.22000, 68.0
14.29000, 62.0
14.36000, 62.0
14.43000, 47.0
14.50000, 43.0
14.57000, 43.0
14.64000, 45.0
14.71000, 37.0
14.78000, 21.0
14.85000, 23.0
14.92000, 21.0
14.99000, 20.0
15.06000, 14.0
15.13000, 10.0
15.20000, 10.0
15.27000, 13.0
15.34000, 11.0
15.41000, 11.0
15.48000, 9.0
15.55000, 7.0
15.62000, 8.0
15.69000, 7.0
15.76000, 6.0
15.83000, 12.0
15.90000, 13.0
15.97000, 46.0
16.04000, 56.0
16.11000, 69.0
16.18000, 43.0
16.25000, 16.0
16.32000, 8.0
16.39000, 8.0
16.46000, 8.0
16.53000, 6.0
16.60000, 8.0
16.67000, 9.0
16.74000, 15.0
16.81000, 5.0
16.88000, 14.0
16.95000, 28.0
17.02000, 16.0
17.09000, 12.0
17.16000, 4.0
17.23000, 7.0
17.30000, 6.0
17.37000, 9.0
17.44000, 5.0
17.51000, 4.0
17.58000, 3.0
17.65000, 3.0
17.72000, 5.0
17.79000, 7.0
17.86000, 7.0
17.93000, 6.0
18.00000, 7.0
18.07000, 8.0
18.14000, 3.0
18.21000, 6.0
18.28000, 4.0
18.35000, 3.0
18.42000, 6.0
18.49000, 3.0
18.56000, 4.0
18.63000, 2.0
18.70000, 2.0
18.77000, 1.0
18.84000, 4.0
18.91000, 4.0
18.98000, 4.0
19.05000, 3.0
19.12000, 2.0
19.19000, 3.0
19.26000, 4.0
19.33000, 2.0
19.40000, 1.0
19.47000, 2.0
19.54000, 2.0
19.61000, 2.0
19.68000, 2.0
19.75000, 3.0
19.82000, 4.0
19.89000, 2.0
19.96000, 3.0
20.03000, 2.0
20.10000, 2.0
20.17000, 3.0
20.24000, 1.0
20.27500, 2.0
#ENDOFDATA   :