File: dtsa2/detectors/2-FEI Sirion/Cu-15kV-P4-10-2K-250s.txt
#FORMAT      : EMSA/MAS Spectral Data File
#VERSION     : 1.0
#TITLE       : Cu-15kV-P4-10-2K-250s
#DATE        : 07-NOV-2016
#TIME        : 09:50
#OWNER       :
#NPOINTS     : 2048.0
#NCOLUMNS    : 1.0
#XUNITS      : keV
#YUNITS      : counts
#DATATYPE    : XY
#XPERCHAN    : 0.005
#OFFSET      : -0.1
#SIGNALTYPE  : EDS
#CHOFFSET    : 20.0
#LIVETIME    : 250.0
#REALTIME    : 356.856
#BEAMKV      : 15.0
#PROBECUR    : 0.0
#MAGCAM      : 2000.0
#XTILTSTGE   : 0.0
#AZIMANGLE   : 0.0
#ELEVANGLE   : 35.0
#XPOSITION mm: 0.1850
#YPOSITION mm: -0.7430
#ZPOSITION mm: 3.4990
##OXINSTPT   : 4
##OXINSTSTROB: 48.09
##OXINSTELEMS: 6,8,29,13
##OXINSTLABEL: 6, 0.277, C
##OXINSTLABEL: 8, 0.525, O
##OXINSTLABEL: 29, 8.048, Cu
##OXINSTLABEL: 29, 8.905, Cu
##OXINSTLABEL: 29, 0.930, Cu
##OXINSTLABEL: 29, 0.832, Cu
##OXINSTLABEL: 29, 0.811, Cu
##OXINSTLABEL: 13, 1.487, Al
#SPECTRUM    : Spectral Data Starts Here
-0.10000, 0.0
-0.06500, 5.0
-0.03000, 508.0
0.00500, 3577.0
0.04000, 4613.0
0.07500, 1835.0
0.11000, 1073.0
0.14500, 954.0
0.18000, 1069.0
0.21500, 1448.0
0.25000, 3287.0
0.28500, 4332.0
0.32000, 1702.0
0.35500, 1566.0
0.39000, 2001.0
0.42500, 2474.0
0.46000, 3190.0
0.49500, 4874.0
0.53000, 5889.0
0.56500, 4381.0
0.60000, 4429.0
0.63500, 5075.0
0.67000, 6060.0
0.70500, 6942.0
0.74000, 9449.0
0.77500, 21330.0
0.81000, 41236.0
0.84500, 35807.0
0.88000, 83913.0
0.91500, 299609.0
0.95000, 300743.0
0.98500, 80713.0
1.02000, 9638.0
1.05500, 3338.0
1.09000, 2391.0
1.12500, 2277.0
1.16000, 2277.0
1.19500, 2425.0
1.23000, 2658.0
1.26500, 2732.0
1.30000, 2673.0
1.33500, 2644.0
1.37000, 2782.0
1.40500, 2950.0
1.44000, 4142.0
1.47500, 6389.0
1.51000, 6185.0
1.54500, 4113.0
1.58000, 3354.0
1.61500, 3275.0
1.65000, 3273.0
1.68500, 3459.0
1.72000, 3817.0
1.75500, 4042.0
1.79000, 4075.0
1.82500, 4701.0
1.86000, 5642.0
1.89500, 5005.0
1.93000, 3919.0
1.96500, 3480.0
2.00000, 3530.0
2.03500, 3620.0
2.07000, 3518.0
2.10500, 3614.0
2.14000, 3629.0
2.17500, 3625.0
2.21000, 3607.0
2.24500, 3697.0
2.28000, 3730.0
2.31500, 3722.0
2.35000, 3760.0
2.38500, 3678.0
2.42000, 3636.0
2.45500, 3668.0
2.49000, 3665.0
2.52500, 3649.0
2.56000, 3625.0
2.59500, 3612.0
2.63000, 3676.0
2.66500, 3573.0
2.70000, 3556.0
2.73500, 3486.0
2.77000, 3465.0
2.80500, 3456.0
2.84000, 3488.0
2.87500, 3451.0
2.91000, 3468.0
2.94500, 3347.0
2.98000, 3445.0
3.01500, 3314.0
3.05000, 3368.0
3.08500, 3323.0
3.12000, 3299.0
3.15500, 3276.0
3.19000, 3183.0
3.22500, 3241.0
3.26000, 3229.0
3.29500, 3229.0
3.33000, 3129.0
3.36500, 3155.0
3.40000, 3072.0
3.43500, 3136.0
3.47000, 3080.0
3.50500, 3025.0
3.54000, 2957.0
3.57500, 2925.0
3.61000, 2881.0
3.64500, 2906.0
3.68000, 2875.0
3.71500, 2841.0
3.75000, 2840.0
3.78500, 2772.0
3.82000, 2787.0
3.85500, 2772.0
3.89000, 2755.0
3.92500, 2659.0
3.96000, 2638.0
3.99500, 2661.0
4.03000, 2590.0
4.06500, 2527.0
4.10000, 2617.0
4.13500, 2493.0
4.17000, 2499.0
4.20500, 2426.0
4.24000, 2439.0
4.27500, 2407.0
4.31000, 2385.0
4.34500, 2380.0
4.38000, 2378.0
4.41500, 2350.0
4.45000, 2236.0
4.48500, 2355.0
4.52000, 2232.0
4.55500, 2174.0
4.59000, 2219.0
4.62500, 2182.0
4.66000, 2122.0
4.69500, 2186.0
4.73000, 2139.0
4.76500, 2160.0
4.80000, 2072.0
4.83500, 2064.0
4.87000, 2084.0
4.90500, 2017.0
4.94000, 2035.0
4.97500, 1995.0
5.01000, 1923.0
5.04500, 2022.0
5.08000, 1893.0
5.11500, 1914.0
5.15000, 1988.0
5.18500, 1878.0
5.22000, 1780.0
5.25500, 1806.0
5.29000, 1859.0
5.32500, 1783.0
5.36000, 1830.0
5.39500, 1739.0
5.43000, 1748.0
5.46500, 1789.0
5.50000, 1759.0
5.53500, 1699.0
5.57000, 1800.0
5.60500, 1737.0
5.64000, 1636.0
5.67500, 1627.0
5.71000, 1598.0
5.74500, 1641.0
5.78000, 1652.0
5.81500, 1671.0
5.85000, 1559.0
5.88500, 1585.0
5.92000, 1520.0
5.95500, 1549.0
5.99000, 1555.0
6.02500, 1547.0
6.06000, 1572.0
6.09500, 1530.0
6.13000, 1408.0
6.16500, 1457.0
6.20000, 1436.0
6.23500, 1426.0
6.27000, 1522.0
6.30500, 1514.0
6.34000, 1439.0
6.37500, 1416.0
6.41000, 1452.0
6.44500, 1354.0
6.48000, 1357.0
6.51500, 1346.0
6.55000, 1289.0
6.58500, 1280.0
6.62000, 1295.0
6.65500, 1289.0
6.69000, 1304.0
6.72500, 1269.0
6.76000, 1233.0
6.79500, 1282.0
6.83000, 1258.0
6.86500, 1156.0
6.90000, 1191.0
6.93500, 1143.0
6.97000, 1230.0
7.00500, 1217.0
7.04000, 1207.0
7.07500, 1103.0
7.11000, 1174.0
7.14500, 1210.0
7.18000, 1181.0
7.21500, 1133.0
7.25000, 1124.0
7.28500, 1114.0
7.32000, 1096.0
7.35500, 1068.0
7.39000, 1048.0
7.42500, 1031.0
7.46000, 1130.0
7.49500, 1053.0
7.53000, 1058.0
7.56500, 1027.0
7.60000, 982.0
7.63500, 1004.0
7.67000, 1047.0
7.70500, 1039.0
7.74000, 1041.0
7.77500, 1072.0
7.81000, 1115.0
7.84500, 1443.0
7.88000, 2582.0
7.91500, 6331.0
7.95000, 14156.0
7.98500, 26100.0
8.02000, 35496.0
8.05500, 35789.0
8.09000, 26952.0
8.12500, 15071.0
8.16000, 6559.0
8.19500, 2624.0
8.23000, 1367.0
8.26500, 1021.0
8.30000, 892.0
8.33500, 868.0
8.37000, 826.0
8.40500, 856.0
8.44000, 887.0
8.47500, 855.0
8.51000, 877.0
8.54500, 891.0
8.58000, 898.0
8.61500, 878.0
8.65000, 874.0
8.68500, 895.0
8.72000, 1034.0
8.75500, 1362.0
8.79000, 2057.0
8.82500, 3299.0
8.86000, 4934.0
8.89500, 5745.0
8.93000, 5395.0
8.96500, 4277.0
9.00000, 2792.0
9.03500, 1633.0
9.07000, 1021.0
9.10500, 774.0
9.14000, 672.0
9.17500, 617.0
9.21000, 599.0
9.24500, 634.0
9.28000, 630.0
9.31500, 604.0
9.35000, 557.0
9.38500, 635.0
9.42000, 600.0
9.45500, 611.0
9.49000, 575.0
9.52500, 592.0
9.56000, 586.0
9.59500, 573.0
9.63000, 573.0
9.66500, 581.0
9.70000, 584.0
9.73500, 587.0
9.77000, 607.0
9.80500, 642.0
9.84000, 614.0
9.87500, 565.0
9.91000, 577.0
9.94500, 554.0
9.98000, 522.0
10.01500, 512.0
10.05000, 518.0
10.08500, 519.0
10.12000, 483.0
10.13500, 496.0
#ENDOFDATA   :