File: dtsa2/detectors/2-FEI Sirion/Oxford p4 05eV 2K.txt
#FORMAT      : EMSA/MAS Spectral Data File
#VERSION     : 1.0
#TITLE       : 2048-5eV-s5-p4
#DATE        : 29-MAY-2014
#TIME        : 15:15
#OWNER       :
#NPOINTS     : 2048.0
#NCOLUMNS    : 1.0
#XUNITS      : keV
#YUNITS      : counts
#DATATYPE    : XY
#XPERCHAN    : 0.005
#OFFSET      : -0.1
#SIGNALTYPE  : EDS
#CHOFFSET    : 20.0
#LIVETIME    : 100.672
#REALTIME    : 137.949
#BEAMKV      : 20.0
#PROBECUR    : 0.0
#MAGCAM      : 3500.0
#XTILTSTGE   : 0.0
#AZIMANGLE   : 0.0
#ELEVANGLE   : 35.0
#XPOSITION mm: -3.1130
#YPOSITION mm: 1.3240
#ZPOSITION mm: 5.0130
##OXINSTPT   : 4
##OXINSTSTROB: 48.11
##OXINSTELEMS: 6,25,13,14
##OXINSTLABEL: 6, 0.277, C
##OXINSTLABEL: 25, 5.899, Mn
##OXINSTLABEL: 25, 6.490, Mn
##OXINSTLABEL: 25, 0.636, Mn
##OXINSTLABEL: 25, 0.567, Mn
##OXINSTLABEL: 13, 1.487, Al
##OXINSTLABEL: 14, 1.740, Si
#SPECTRUM    : Spectral Data Starts Here
-0.10000, 0.0
-0.06500, 2.0
-0.03000, 209.0
0.00500, 1386.0
0.04000, 1981.0
0.07500, 688.0
0.11000, 311.0
0.14500, 301.0
0.18000, 368.0
0.21500, 530.0
0.25000, 1574.0
0.28500, 2173.0
0.32000, 723.0
0.35500, 558.0
0.39000, 782.0
0.42500, 1002.0
0.46000, 1436.0
0.49500, 3050.0
0.53000, 8464.0
0.56500, 11546.0
0.60000, 13509.0
0.63500, 23322.0
0.67000, 10677.0
0.70500, 1495.0
0.74000, 591.0
0.77500, 439.0
0.81000, 417.0
0.84500, 471.0
0.88000, 520.0
0.91500, 543.0
0.95000, 586.0
0.98500, 647.0
1.02000, 635.0
1.05500, 738.0
1.09000, 733.0
1.12500, 821.0
1.16000, 887.0
1.19500, 951.0
1.23000, 993.0
1.26500, 978.0
1.30000, 1062.0
1.33500, 1002.0
1.37000, 1039.0
1.40500, 1146.0
1.44000, 1241.0
1.47500, 1436.0
1.51000, 1419.0
1.54500, 1288.0
1.58000, 1230.0
1.61500, 1215.0
1.65000, 1285.0
1.68500, 1324.0
1.72000, 1354.0
1.75500, 1418.0
1.79000, 1417.0
1.82500, 1340.0
1.86000, 1300.0
1.89500, 1283.0
1.93000, 1284.0
1.96500, 1348.0
2.00000, 1368.0
2.03500, 1373.0
2.07000, 1360.0
2.10500, 1380.0
2.14000, 1320.0
2.17500, 1324.0
2.21000, 1347.0
2.24500, 1341.0
2.28000, 1407.0
2.31500, 1423.0
2.35000, 1399.0
2.38500, 1368.0
2.42000, 1358.0
2.45500, 1431.0
2.49000, 1377.0
2.52500, 1430.0
2.56000, 1339.0
2.59500, 1361.0
2.63000, 1343.0
2.66500, 1350.0
2.70000, 1327.0
2.73500, 1383.0
2.77000, 1336.0
2.80500, 1323.0
2.84000, 1319.0
2.87500, 1296.0
2.91000, 1254.0
2.94500, 1277.0
2.98000, 1253.0
3.01500, 1225.0
3.05000, 1274.0
3.08500, 1226.0
3.12000, 1260.0
3.15500, 1175.0
3.19000, 1207.0
3.22500, 1221.0
3.26000, 1191.0
3.29500, 1167.0
3.33000, 1170.0
3.36500, 1160.0
3.40000, 1125.0
3.43500, 1157.0
3.47000, 1134.0
3.50500, 1061.0
3.54000, 1124.0
3.57500, 1051.0
3.61000, 1097.0
3.64500, 1105.0
3.68000, 1049.0
3.71500, 1043.0
3.75000, 1000.0
3.78500, 1025.0
3.82000, 1028.0
3.85500, 1035.0
3.89000, 999.0
3.92500, 972.0
3.96000, 1000.0
3.99500, 1042.0
4.03000, 1032.0
4.06500, 1062.0
4.10000, 1146.0
4.13500, 1208.0
4.17000, 1208.0
4.20500, 1108.0
4.24000, 973.0
4.27500, 982.0
4.31000, 905.0
4.34500, 859.0
4.38000, 921.0
4.41500, 904.0
4.45000, 833.0
4.48500, 881.0
4.52000, 882.0
4.55500, 849.0
4.59000, 893.0
4.62500, 881.0
4.66000, 820.0
4.69500, 818.0
4.73000, 856.0
4.76500, 819.0
4.80000, 844.0
4.83500, 818.0
4.87000, 771.0
4.90500, 795.0
4.94000, 786.0
4.97500, 779.0
5.01000, 777.0
5.04500, 787.0
5.08000, 747.0
5.11500, 748.0
5.15000, 751.0
5.18500, 711.0
5.22000, 751.0
5.25500, 745.0
5.29000, 706.0
5.32500, 685.0
5.36000, 759.0
5.39500, 691.0
5.43000, 669.0
5.46500, 671.0
5.50000, 686.0
5.53500, 728.0
5.57000, 727.0
5.60500, 755.0
5.64000, 799.0
5.67500, 766.0
5.71000, 1020.0
5.74500, 2203.0
5.78000, 7122.0
5.81500, 20817.0
5.85000, 43381.0
5.88500, 61230.0
5.92000, 57571.0
5.95500, 36050.0
5.99000, 15467.0
6.02500, 4789.0
6.06000, 1496.0
6.09500, 769.0
6.13000, 723.0
6.16500, 681.0
6.20000, 679.0
6.23500, 691.0
6.27000, 709.0
6.30500, 807.0
6.34000, 1063.0
6.37500, 1935.0
6.41000, 3837.0
6.44500, 6642.0
6.48000, 8457.0
6.51500, 7673.0
6.55000, 5011.0
6.58500, 2581.0
6.62000, 1115.0
6.65500, 559.0
6.69000, 448.0
6.72500, 414.0
6.76000, 407.0
6.79500, 393.0
6.83000, 404.0
6.86500, 404.0
6.90000, 399.0
6.93500, 395.0
6.97000, 424.0
7.00500, 383.0
7.04000, 427.0
7.07500, 408.0
7.11000, 462.0
7.14500, 402.0
7.18000, 404.0
7.21500, 399.0
7.25000, 400.0
7.28500, 375.0
7.32000, 387.0
7.35500, 382.0
7.39000, 386.0
7.42500, 389.0
7.46000, 387.0
7.49500, 391.0
7.53000, 389.0
7.56500, 377.0
7.60000, 357.0
7.63500, 374.0
7.67000, 401.0
7.70500, 390.0
7.74000, 351.0
7.77500, 334.0
7.81000, 387.0
7.84500, 360.0
7.88000, 366.0
7.91500, 363.0
7.95000, 388.0
7.98500, 357.0
8.02000, 374.0
8.05500, 352.0
8.09000, 366.0
8.12500, 318.0
8.16000, 334.0
8.19500, 349.0
8.23000, 340.0
8.26500, 354.0
8.30000, 369.0
8.33500, 347.0
8.37000, 339.0
8.40500, 356.0
8.44000, 354.0
8.47500, 343.0
8.51000, 335.0
8.54500, 341.0
8.58000, 325.0
8.61500, 327.0
8.65000, 333.0
8.68500, 316.0
8.72000, 311.0
8.75500, 310.0
8.79000, 332.0
8.82500, 325.0
8.86000, 329.0
8.89500, 315.0
8.93000, 300.0
8.96500, 291.0
9.00000, 284.0
9.03500, 306.0
9.07000, 299.0
9.10500, 302.0
9.14000, 289.0
9.17500, 279.0
9.21000, 300.0
9.24500, 283.0
9.28000, 282.0
9.31500, 304.0
9.35000, 277.0
9.38500, 282.0
9.42000, 301.0
9.45500, 298.0
9.49000, 287.0
9.52500, 270.0
9.56000, 294.0
9.59500, 262.0
9.63000, 252.0
9.66500, 268.0
9.70000, 238.0
9.73500, 259.0
9.77000, 283.0
9.80500, 268.0
9.84000, 273.0
9.87500, 254.0
9.91000, 254.0
9.94500, 264.0
9.98000, 272.0
10.01500, 256.0
10.05000, 257.0
10.08500, 268.0
10.12000, 255.0
10.13500, 230.0
#ENDOFDATA   :