File: dtsa2/detectors/2-FEI Sirion/Oxford p4 10eV 2K.txt
#FORMAT      : EMSA/MAS Spectral Data File
#VERSION     : 1.0
#TITLE       : 2048-10eV-s5-p4
#DATE        : 29-MAY-2014
#TIME        : 15:10
#OWNER       :
#NPOINTS     : 2048.0
#NCOLUMNS    : 1.0
#XUNITS      : keV
#YUNITS      : counts
#DATATYPE    : XY
#XPERCHAN    : 0.01
#OFFSET      : -0.2
#SIGNALTYPE  : EDS
#CHOFFSET    : 20.0
#LIVETIME    : 100.376
#REALTIME    : 137.811
#BEAMKV      : 20.0
#PROBECUR    : 0.0
#MAGCAM      : 3500.0
#XTILTSTGE   : 0.0
#AZIMANGLE   : 0.0
#ELEVANGLE   : 35.0
#XPOSITION mm: -3.1130
#YPOSITION mm: 1.3240
#ZPOSITION mm: 5.0130
##OXINSTPT   : 4
##OXINSTSTROB: 48.11
##OXINSTELEMS: 6,25,13,14
##OXINSTLABEL: 6, 0.277, C
##OXINSTLABEL: 25, 5.899, Mn
##OXINSTLABEL: 25, 6.490, Mn
##OXINSTLABEL: 25, 0.636, Mn
##OXINSTLABEL: 25, 0.567, Mn
##OXINSTLABEL: 13, 1.487, Al
##OXINSTLABEL: 14, 1.740, Si
#SPECTRUM    : Spectral Data Starts Here
-0.20000, 0.0
-0.13000, 0.0
-0.06000, 8.0
0.01000, 3089.0
0.08000, 1068.0
0.15000, 610.0
0.22000, 1225.0
0.29000, 3930.0
0.36000, 1176.0
0.43000, 2048.0
0.50000, 7259.0
0.57000, 22732.0
0.64000, 45269.0
0.71000, 2439.0
0.78000, 881.0
0.85000, 975.0
0.92000, 1115.0
0.99000, 1291.0
1.06000, 1455.0
1.13000, 1656.0
1.20000, 1861.0
1.27000, 2060.0
1.34000, 2169.0
1.41000, 2282.0
1.48000, 2861.0
1.55000, 2542.0
1.62000, 2515.0
1.69000, 2687.0
1.76000, 2763.0
1.83000, 2643.0
1.90000, 2632.0
1.97000, 2711.0
2.04000, 2751.0
2.11000, 2780.0
2.18000, 2713.0
2.25000, 2840.0
2.32000, 2845.0
2.39000, 2805.0
2.46000, 2728.0
2.53000, 2771.0
2.60000, 2691.0
2.67000, 2762.0
2.74000, 2705.0
2.81000, 2643.0
2.88000, 2634.0
2.95000, 2552.0
3.02000, 2544.0
3.09000, 2506.0
3.16000, 2440.0
3.23000, 2416.0
3.30000, 2385.0
3.37000, 2318.0
3.44000, 2270.0
3.51000, 2313.0
3.58000, 2260.0
3.65000, 2177.0
3.72000, 2133.0
3.79000, 2125.0
3.86000, 2088.0
3.93000, 2011.0
4.00000, 2005.0
4.07000, 2081.0
4.14000, 2446.0
4.21000, 2141.0
4.28000, 1860.0
4.35000, 1816.0
4.42000, 1765.0
4.49000, 1718.0
4.56000, 1721.0
4.63000, 1666.0
4.70000, 1688.0
4.77000, 1694.0
4.84000, 1598.0
4.91000, 1607.0
4.98000, 1544.0
5.05000, 1540.0
5.12000, 1471.0
5.19000, 1417.0
5.26000, 1471.0
5.33000, 1386.0
5.40000, 1376.0
5.47000, 1464.0
5.54000, 1380.0
5.61000, 1491.0
5.68000, 1648.0
5.75000, 5130.0
5.82000, 47705.0
5.89000, 124300.0
5.96000, 65904.0
6.03000, 8160.0
6.10000, 1543.0
6.17000, 1383.0
6.24000, 1418.0
6.31000, 1668.0
6.38000, 4286.0
6.45000, 13819.0
6.52000, 14904.0
6.59000, 4627.0
6.66000, 1124.0
6.73000, 873.0
6.80000, 829.0
6.87000, 801.0
6.94000, 797.0
7.01000, 824.0
7.08000, 833.0
7.15000, 820.0
7.22000, 801.0
7.29000, 763.0
7.36000, 729.0
7.43000, 756.0
7.50000, 773.0
7.57000, 809.0
7.64000, 776.0
7.71000, 744.0
7.78000, 738.0
7.85000, 761.0
7.92000, 752.0
7.99000, 745.0
8.06000, 704.0
8.13000, 711.0
8.20000, 716.0
8.27000, 708.0
8.34000, 680.0
8.41000, 706.0
8.48000, 685.0
8.55000, 704.0
8.62000, 654.0
8.69000, 655.0
8.76000, 661.0
8.83000, 657.0
8.90000, 639.0
8.97000, 636.0
9.04000, 656.0
9.11000, 605.0
9.18000, 557.0
9.25000, 573.0
9.32000, 624.0
9.39000, 604.0
9.46000, 530.0
9.53000, 587.0
9.60000, 507.0
9.67000, 538.0
9.74000, 542.0
9.81000, 545.0
9.88000, 507.0
9.95000, 470.0
10.02000, 546.0
10.09000, 523.0
10.16000, 491.0
10.23000, 479.0
10.30000, 506.0
10.37000, 457.0
10.44000, 468.0
10.51000, 475.0
10.58000, 483.0
10.65000, 440.0
10.72000, 441.0
10.79000, 404.0
10.86000, 441.0
10.93000, 415.0
11.00000, 379.0
11.07000, 394.0
11.14000, 425.0
11.21000, 401.0
11.28000, 380.0
11.35000, 383.0
11.42000, 379.0
11.49000, 394.0
11.56000, 373.0
11.63000, 450.0
11.70000, 669.0
11.77000, 1055.0
11.84000, 947.0
11.91000, 571.0
11.98000, 373.0
12.05000, 324.0
12.12000, 324.0
12.19000, 307.0
12.26000, 357.0
12.33000, 424.0
12.40000, 483.0
12.47000, 396.0
12.54000, 317.0
12.61000, 277.0
12.68000, 268.0
12.75000, 257.0
12.82000, 261.0
12.89000, 248.0
12.96000, 259.0
13.03000, 255.0
13.10000, 252.0
13.17000, 231.0
13.24000, 219.0
13.31000, 239.0
13.38000, 226.0
13.45000, 220.0
13.52000, 205.0
13.59000, 222.0
13.66000, 238.0
13.73000, 227.0
13.80000, 210.0
13.87000, 201.0
13.94000, 205.0
14.01000, 164.0
14.08000, 187.0
14.15000, 181.0
14.22000, 170.0
14.29000, 177.0
14.36000, 173.0
14.43000, 172.0
14.50000, 139.0
14.57000, 163.0
14.64000, 133.0
14.71000, 128.0
14.78000, 131.0
14.85000, 132.0
14.92000, 131.0
14.99000, 150.0
15.06000, 129.0
15.13000, 129.0
15.20000, 108.0
15.27000, 130.0
15.34000, 110.0
15.41000, 115.0
15.48000, 114.0
15.55000, 101.0
15.62000, 109.0
15.69000, 101.0
15.76000, 102.0
15.83000, 98.0
15.90000, 97.0
15.97000, 96.0
16.04000, 89.0
16.11000, 83.0
16.18000, 94.0
16.25000, 88.0
16.32000, 78.0
16.39000, 72.0
16.46000, 84.0
16.53000, 75.0
16.60000, 73.0
16.67000, 77.0
16.74000, 73.0
16.81000, 78.0
16.88000, 66.0
16.95000, 50.0
17.02000, 56.0
17.09000, 59.0
17.16000, 60.0
17.23000, 45.0
17.30000, 49.0
17.37000, 46.0
17.44000, 51.0
17.51000, 40.0
17.58000, 52.0
17.65000, 45.0
17.72000, 49.0
17.79000, 43.0
17.86000, 38.0
17.93000, 32.0
18.00000, 39.0
18.07000, 35.0
18.14000, 38.0
18.21000, 39.0
18.28000, 37.0
18.35000, 42.0
18.42000, 25.0
18.49000, 29.0
18.56000, 30.0
18.63000, 26.0
18.70000, 21.0
18.77000, 24.0
18.84000, 29.0
18.91000, 21.0
18.98000, 24.0
19.05000, 13.0
19.12000, 16.0
19.19000, 16.0
19.26000, 8.0
19.33000, 10.0
19.40000, 15.0
19.47000, 12.0
19.54000, 12.0
19.61000, 18.0
19.68000, 9.0
19.75000, 9.0
19.82000, 10.0
19.89000, 4.0
19.96000, 5.0
20.03000, 4.0
20.10000, 6.0
20.17000, 9.0
20.24000, 4.0
20.27000, 5.0
#ENDOFDATA   :