File: dtsa2/detectors/2-FEI Sirion/Oxford p6 05eV 2K.txt
#FORMAT      : EMSA/MAS Spectral Data File
#VERSION     : 1.0
#TITLE       : 2048-5eV-s4-p6
#DATE        : 29-MAY-2014
#TIME        : 15:02
#OWNER       :
#NPOINTS     : 2048.0
#NCOLUMNS    : 1.0
#XUNITS      : keV
#YUNITS      : counts
#DATATYPE    : XY
#XPERCHAN    : 0.005
#OFFSET      : -0.1
#SIGNALTYPE  : EDS
#CHOFFSET    : 20.0
#LIVETIME    : 100.45
#REALTIME    : 140.939
#BEAMKV      : 20.0
#PROBECUR    : 0.0
#MAGCAM      : 3500.0
#XTILTSTGE   : 0.0
#AZIMANGLE   : 0.0
#ELEVANGLE   : 35.0
#XPOSITION mm: -3.1130
#YPOSITION mm: 1.3240
#ZPOSITION mm: 5.0130
##OXINSTPT   : 6
##OXINSTSTROB: 34.44
##OXINSTELEMS: 25,6,13
##OXINSTLABEL: 25, 5.899, Mn
##OXINSTLABEL: 25, 6.490, Mn
##OXINSTLABEL: 25, 0.636, Mn
##OXINSTLABEL: 25, 0.567, Mn
##OXINSTLABEL: 6, 0.277, C
##OXINSTLABEL: 13, 1.487, Al
#SPECTRUM    : Spectral Data Starts Here
-0.10000, 0.0
-0.06500, 1.0
-0.03000, 286.0
0.00500, 4016.0
0.04000, 613.0
0.07500, 57.0
0.11000, 64.0
0.14500, 73.0
0.18000, 82.0
0.21500, 119.0
0.25000, 364.0
0.28500, 552.0
0.32000, 121.0
0.35500, 138.0
0.39000, 167.0
0.42500, 214.0
0.46000, 293.0
0.49500, 626.0
0.53000, 1930.0
0.56500, 2882.0
0.60000, 2578.0
0.63500, 6242.0
0.67000, 2126.0
0.70500, 216.0
0.74000, 127.0
0.77500, 99.0
0.81000, 106.0
0.84500, 115.0
0.88000, 125.0
0.91500, 115.0
0.95000, 144.0
0.98500, 140.0
1.02000, 148.0
1.05500, 164.0
1.09000, 176.0
1.12500, 185.0
1.16000, 200.0
1.19500, 218.0
1.23000, 233.0
1.26500, 233.0
1.30000, 221.0
1.33500, 236.0
1.37000, 253.0
1.40500, 246.0
1.44000, 276.0
1.47500, 314.0
1.51000, 329.0
1.54500, 320.0
1.58000, 273.0
1.61500, 281.0
1.65000, 294.0
1.68500, 299.0
1.72000, 299.0
1.75500, 311.0
1.79000, 302.0
1.82500, 300.0
1.86000, 300.0
1.89500, 285.0
1.93000, 300.0
1.96500, 324.0
2.00000, 313.0
2.03500, 305.0
2.07000, 311.0
2.10500, 308.0
2.14000, 324.0
2.17500, 329.0
2.21000, 332.0
2.24500, 292.0
2.28000, 318.0
2.31500, 342.0
2.35000, 314.0
2.38500, 320.0
2.42000, 334.0
2.45500, 320.0
2.49000, 326.0
2.52500, 303.0
2.56000, 341.0
2.59500, 321.0
2.63000, 287.0
2.66500, 321.0
2.70000, 302.0
2.73500, 296.0
2.77000, 302.0
2.80500, 288.0
2.84000, 286.0
2.87500, 316.0
2.91000, 305.0
2.94500, 289.0
2.98000, 312.0
3.01500, 289.0
3.05000, 289.0
3.08500, 292.0
3.12000, 281.0
3.15500, 301.0
3.19000, 296.0
3.22500, 272.0
3.26000, 276.0
3.29500, 283.0
3.33000, 291.0
3.36500, 266.0
3.40000, 260.0
3.43500, 237.0
3.47000, 284.0
3.50500, 285.0
3.54000, 236.0
3.57500, 244.0
3.61000, 267.0
3.64500, 221.0
3.68000, 262.0
3.71500, 237.0
3.75000, 244.0
3.78500, 224.0
3.82000, 226.0
3.85500, 246.0
3.89000, 234.0
3.92500, 235.0
3.96000, 224.0
3.99500, 247.0
4.03000, 225.0
4.06500, 225.0
4.10000, 237.0
4.13500, 271.0
4.17000, 290.0
4.20500, 225.0
4.24000, 219.0
4.27500, 220.0
4.31000, 172.0
4.34500, 188.0
4.38000, 218.0
4.41500, 158.0
4.45000, 210.0
4.48500, 195.0
4.52000, 187.0
4.55500, 196.0
4.59000, 194.0
4.62500, 196.0
4.66000, 168.0
4.69500, 181.0
4.73000, 165.0
4.76500, 180.0
4.80000, 170.0
4.83500, 204.0
4.87000, 179.0
4.90500, 167.0
4.94000, 190.0
4.97500, 180.0
5.01000, 180.0
5.04500, 180.0
5.08000, 191.0
5.11500, 174.0
5.15000, 158.0
5.18500, 157.0
5.22000, 178.0
5.25500, 161.0
5.29000, 155.0
5.32500, 163.0
5.36000, 164.0
5.39500, 149.0
5.43000, 169.0
5.46500, 167.0
5.50000, 150.0
5.53500, 150.0
5.57000, 179.0
5.60500, 156.0
5.64000, 187.0
5.67500, 197.0
5.71000, 208.0
5.74500, 443.0
5.78000, 1432.0
5.81500, 4555.0
5.85000, 10062.0
5.88500, 14547.0
5.92000, 13675.0
5.95500, 8445.0
5.99000, 3336.0
6.02500, 977.0
6.06000, 292.0
6.09500, 162.0
6.13000, 154.0
6.16500, 151.0
6.20000, 155.0
6.23500, 142.0
6.27000, 145.0
6.30500, 171.0
6.34000, 240.0
6.37500, 414.0
6.41000, 819.0
6.44500, 1536.0
6.48000, 1902.0
6.51500, 1792.0
6.55000, 1164.0
6.58500, 564.0
6.62000, 246.0
6.65500, 111.0
6.69000, 93.0
6.72500, 95.0
6.76000, 96.0
6.79500, 86.0
6.83000, 94.0
6.86500, 84.0
6.90000, 89.0
6.93500, 88.0
6.97000, 94.0
7.00500, 92.0
7.04000, 94.0
7.07500, 95.0
7.11000, 83.0
7.14500, 75.0
7.18000, 88.0
7.21500, 93.0
7.25000, 91.0
7.28500, 84.0
7.32000, 76.0
7.35500, 81.0
7.39000, 97.0
7.42500, 84.0
7.46000, 87.0
7.49500, 80.0
7.53000, 94.0
7.56500, 79.0
7.60000, 86.0
7.63500, 82.0
7.67000, 72.0
7.70500, 84.0
7.74000, 79.0
7.77500, 79.0
7.81000, 81.0
7.84500, 81.0
7.88000, 57.0
7.91500, 87.0
7.95000, 69.0
7.98500, 84.0
8.02000, 69.0
8.05500, 73.0
8.09000, 77.0
8.12500, 91.0
8.16000, 89.0
8.19500, 87.0
8.23000, 72.0
8.26500, 81.0
8.30000, 65.0
8.33500, 85.0
8.37000, 67.0
8.40500, 68.0
8.44000, 69.0
8.47500, 75.0
8.51000, 79.0
8.54500, 68.0
8.58000, 73.0
8.61500, 69.0
8.65000, 77.0
8.68500, 71.0
8.72000, 69.0
8.75500, 64.0
8.79000, 66.0
8.82500, 75.0
8.86000, 56.0
8.89500, 64.0
8.93000, 59.0
8.96500, 83.0
9.00000, 64.0
9.03500, 66.0
9.07000, 67.0
9.10500, 67.0
9.14000, 57.0
9.17500, 64.0
9.21000, 59.0
9.24500, 69.0
9.28000, 55.0
9.31500, 58.0
9.35000, 63.0
9.38500, 48.0
9.42000, 60.0
9.45500, 72.0
9.49000, 60.0
9.52500, 68.0
9.56000, 60.0
9.59500, 63.0
9.63000, 65.0
9.66500, 51.0
9.70000, 70.0
9.73500, 51.0
9.77000, 63.0
9.80500, 62.0
9.84000, 59.0
9.87500, 48.0
9.91000, 49.0
9.94500, 48.0
9.98000, 49.0
10.01500, 56.0
10.05000, 52.0
10.08500, 51.0
10.12000, 66.0
10.13500, 42.0
#ENDOFDATA   :