File: dtsa2/detectors/2-FEI Sirion/Oxford p4 05eV 4K.txt
#FORMAT      : EMSA/MAS Spectral Data File
#VERSION     : 1.0
#TITLE       : 4096-5eV-s5-p4
#DATE        : 29-MAY-2014
#TIME        : 15:07
#OWNER       :
#NPOINTS     : 4096.0
#NCOLUMNS    : 1.0
#XUNITS      : keV
#YUNITS      : counts
#DATATYPE    : XY
#XPERCHAN    : 0.005
#OFFSET      : -0.2
#SIGNALTYPE  : EDS
#CHOFFSET    : 40.0
#LIVETIME    : 100.289
#REALTIME    : 137.402
#BEAMKV      : 20.0
#PROBECUR    : 0.0
#MAGCAM      : 3500.0
#XTILTSTGE   : 0.0
#AZIMANGLE   : 0.0
#ELEVANGLE   : 35.0
#XPOSITION mm: -3.1130
#YPOSITION mm: 1.3240
#ZPOSITION mm: 5.0130
##OXINSTPT   : 4
##OXINSTSTROB: 48.07
##OXINSTELEMS: 25,6,13,14
##OXINSTLABEL: 25, 5.899, Mn
##OXINSTLABEL: 25, 6.490, Mn
##OXINSTLABEL: 25, 0.636, Mn
##OXINSTLABEL: 25, 0.567, Mn
##OXINSTLABEL: 6, 0.277, C
##OXINSTLABEL: 13, 1.487, Al
##OXINSTLABEL: 14, 1.740, Si
#SPECTRUM    : Spectral Data Starts Here
-0.20000, 0.0
-0.13000, 0.0
-0.06000, 7.0
0.01000, 1606.0
0.08000, 515.0
0.15000, 286.0
0.22000, 626.0
0.29000, 1996.0
0.36000, 546.0
0.43000, 1030.0
0.50000, 3724.0
0.57000, 11010.0
0.64000, 22698.0
0.71000, 1147.0
0.78000, 417.0
0.85000, 463.0
0.92000, 590.0
0.99000, 630.0
1.06000, 760.0
1.13000, 856.0
1.20000, 985.0
1.27000, 1030.0
1.34000, 1053.0
1.41000, 1114.0
1.48000, 1470.0
1.55000, 1315.0
1.62000, 1278.0
1.69000, 1262.0
1.76000, 1414.0
1.83000, 1333.0
1.90000, 1304.0
1.97000, 1329.0
2.04000, 1359.0
2.11000, 1378.0
2.18000, 1351.0
2.25000, 1356.0
2.32000, 1435.0
2.39000, 1373.0
2.46000, 1377.0
2.53000, 1395.0
2.60000, 1327.0
2.67000, 1329.0
2.74000, 1364.0
2.81000, 1293.0
2.88000, 1323.0
2.95000, 1275.0
3.02000, 1301.0
3.09000, 1272.0
3.16000, 1190.0
3.23000, 1190.0
3.30000, 1202.0
3.37000, 1144.0
3.44000, 1150.0
3.51000, 1104.0
3.58000, 1072.0
3.65000, 1073.0
3.72000, 1051.0
3.79000, 1038.0
3.86000, 1015.0
3.93000, 996.0
4.00000, 985.0
4.07000, 1048.0
4.14000, 1204.0
4.21000, 1104.0
4.28000, 912.0
4.35000, 875.0
4.42000, 867.0
4.49000, 860.0
4.56000, 863.0
4.63000, 824.0
4.70000, 866.0
4.77000, 784.0
4.84000, 796.0
4.91000, 797.0
4.98000, 797.0
5.05000, 771.0
5.12000, 772.0
5.19000, 753.0
5.26000, 702.0
5.33000, 680.0
5.40000, 665.0
5.47000, 698.0
5.54000, 694.0
5.61000, 745.0
5.68000, 811.0
5.75000, 2538.0
5.82000, 23655.0
5.89000, 62221.0
5.96000, 32608.0
6.03000, 3977.0
6.10000, 750.0
6.17000, 721.0
6.24000, 702.0
6.31000, 792.0
6.38000, 2065.0
6.45000, 6983.0
6.52000, 7482.0
6.59000, 2219.0
6.66000, 562.0
6.73000, 394.0
6.80000, 368.0
6.87000, 371.0
6.94000, 380.0
7.01000, 408.0
7.08000, 405.0
7.15000, 422.0
7.22000, 387.0
7.29000, 352.0
7.36000, 395.0
7.43000, 396.0
7.50000, 372.0
7.57000, 409.0
7.64000, 384.0
7.71000, 364.0
7.78000, 357.0
7.85000, 352.0
7.92000, 388.0
7.99000, 392.0
8.06000, 356.0
8.13000, 337.0
8.20000, 322.0
8.27000, 333.0
8.34000, 349.0
8.41000, 329.0
8.48000, 338.0
8.55000, 325.0
8.62000, 309.0
8.69000, 297.0
8.76000, 325.0
8.83000, 328.0
8.90000, 296.0
8.97000, 298.0
9.04000, 285.0
9.11000, 300.0
9.18000, 274.0
9.25000, 293.0
9.32000, 305.0
9.39000, 291.0
9.46000, 300.0
9.53000, 282.0
9.60000, 264.0
9.67000, 277.0
9.74000, 264.0
9.81000, 263.0
9.88000, 282.0
9.95000, 263.0
10.02000, 254.0
10.09000, 256.0
10.16000, 260.0
10.23000, 248.0
10.30000, 248.0
10.37000, 245.0
10.44000, 233.0
10.51000, 225.0
10.58000, 222.0
10.65000, 230.0
10.72000, 250.0
10.79000, 236.0
10.86000, 210.0
10.93000, 199.0
11.00000, 199.0
11.07000, 213.0
11.14000, 225.0
11.21000, 199.0
11.28000, 176.0
11.35000, 193.0
11.42000, 177.0
11.49000, 204.0
11.56000, 180.0
11.63000, 219.0
11.70000, 343.0
11.77000, 509.0
11.84000, 462.0
11.91000, 301.0
11.98000, 170.0
12.05000, 177.0
12.12000, 161.0
12.19000, 154.0
12.26000, 173.0
12.33000, 219.0
12.40000, 249.0
12.47000, 204.0
12.54000, 150.0
12.61000, 137.0
12.68000, 143.0
12.75000, 121.0
12.82000, 126.0
12.89000, 131.0
12.96000, 117.0
13.03000, 132.0
13.10000, 117.0
13.17000, 118.0
13.24000, 117.0
13.31000, 105.0
13.38000, 111.0
13.45000, 120.0
13.52000, 96.0
13.59000, 89.0
13.66000, 95.0
13.73000, 92.0
13.80000, 101.0
13.87000, 79.0
13.94000, 92.0
14.01000, 94.0
14.08000, 99.0
14.15000, 99.0
14.22000, 85.0
14.29000, 81.0
14.36000, 87.0
14.43000, 80.0
14.50000, 73.0
14.57000, 67.0
14.64000, 80.0
14.71000, 77.0
14.78000, 74.0
14.85000, 82.0
14.92000, 51.0
14.99000, 67.0
15.06000, 66.0
15.13000, 61.0
15.20000, 53.0
15.27000, 64.0
15.34000, 63.0
15.41000, 56.0
15.48000, 52.0
15.55000, 52.0
15.62000, 59.0
15.69000, 48.0
15.76000, 41.0
15.83000, 38.0
15.90000, 54.0
15.97000, 46.0
16.04000, 39.0
16.11000, 46.0
16.18000, 42.0
16.25000, 46.0
16.32000, 39.0
16.39000, 39.0
16.46000, 45.0
16.53000, 39.0
16.60000, 36.0
16.67000, 46.0
16.74000, 31.0
16.81000, 40.0
16.88000, 32.0
16.95000, 35.0
17.02000, 26.0
17.09000, 33.0
17.16000, 27.0
17.23000, 27.0
17.30000, 28.0
17.37000, 23.0
17.44000, 28.0
17.51000, 23.0
17.58000, 23.0
17.65000, 30.0
17.72000, 24.0
17.79000, 14.0
17.86000, 26.0
17.93000, 24.0
18.00000, 19.0
18.07000, 15.0
18.14000, 23.0
18.21000, 13.0
18.28000, 20.0
18.35000, 18.0
18.42000, 16.0
18.49000, 11.0
18.56000, 16.0
18.63000, 17.0
18.70000, 20.0
18.77000, 6.0
18.84000, 10.0
18.91000, 8.0
18.98000, 6.0
19.05000, 5.0
19.12000, 9.0
19.19000, 7.0
19.26000, 6.0
19.33000, 2.0
19.40000, 7.0
19.47000, 6.0
19.54000, 6.0
19.61000, 5.0
19.68000, 4.0
19.75000, 8.0
19.82000, 4.0
19.89000, 4.0
19.96000, 2.0
20.03000, 4.0
20.10000, 2.0
20.17000, 1.0
20.24000, 4.0
20.27500, 3.0
#ENDOFDATA   :