File: dtsa2/detectors/2-FEI Sirion/Oxford p6 05eV 4K.txt
#FORMAT      : EMSA/MAS Spectral Data File
#VERSION     : 1.0
#TITLE       : 4096-5eV-s4-p6
#DATE        : 29-MAY-2014
#TIME        : 14:56
#OWNER       :
#NPOINTS     : 4096.0
#NCOLUMNS    : 1.0
#XUNITS      : keV
#YUNITS      : counts
#DATATYPE    : XY
#XPERCHAN    : 0.005
#OFFSET      : -0.2
#SIGNALTYPE  : EDS
#CHOFFSET    : 40.0
#LIVETIME    : 100.654
#REALTIME    : 141.284
#BEAMKV      : 20.0
#PROBECUR    : 0.0
#MAGCAM      : 3500.0
#XTILTSTGE   : 0.0
#AZIMANGLE   : 0.0
#ELEVANGLE   : 35.0
#XPOSITION mm: -3.1130
#YPOSITION mm: 1.3240
#ZPOSITION mm: 5.0130
##OXINSTPT   : 6
##OXINSTSTROB: 34.42
##OXINSTELEMS: 25,6,13
##OXINSTLABEL: 25, 5.899, Mn
##OXINSTLABEL: 25, 6.490, Mn
##OXINSTLABEL: 25, 0.636, Mn
##OXINSTLABEL: 25, 0.567, Mn
##OXINSTLABEL: 6, 0.277, C
##OXINSTLABEL: 13, 1.487, Al
#SPECTRUM    : Spectral Data Starts Here
-0.20000, 0.0
-0.13000, 0.0
-0.06000, 1.0
0.01000, 4160.0
0.08000, 60.0
0.15000, 76.0
0.22000, 139.0
0.29000, 490.0
0.36000, 151.0
0.43000, 236.0
0.50000, 778.0
0.57000, 2592.0
0.64000, 6182.0
0.71000, 181.0
0.78000, 88.0
0.85000, 102.0
0.92000, 123.0
0.99000, 148.0
1.06000, 172.0
1.13000, 202.0
1.20000, 209.0
1.27000, 222.0
1.34000, 220.0
1.41000, 253.0
1.48000, 330.0
1.55000, 282.0
1.62000, 273.0
1.69000, 295.0
1.76000, 328.0
1.83000, 317.0
1.90000, 271.0
1.97000, 302.0
2.04000, 294.0
2.11000, 313.0
2.18000, 318.0
2.25000, 306.0
2.32000, 332.0
2.39000, 316.0
2.46000, 314.0
2.53000, 296.0
2.60000, 315.0
2.67000, 313.0
2.74000, 302.0
2.81000, 327.0
2.88000, 315.0
2.95000, 298.0
3.02000, 283.0
3.09000, 295.0
3.16000, 291.0
3.23000, 265.0
3.30000, 262.0
3.37000, 252.0
3.44000, 264.0
3.51000, 269.0
3.58000, 265.0
3.65000, 257.0
3.72000, 243.0
3.79000, 224.0
3.86000, 226.0
3.93000, 234.0
4.00000, 251.0
4.07000, 245.0
4.14000, 298.0
4.21000, 240.0
4.28000, 211.0
4.35000, 206.0
4.42000, 192.0
4.49000, 201.0
4.56000, 190.0
4.63000, 181.0
4.70000, 190.0
4.77000, 175.0
4.84000, 170.0
4.91000, 194.0
4.98000, 183.0
5.05000, 177.0
5.12000, 177.0
5.19000, 189.0
5.26000, 141.0
5.33000, 155.0
5.40000, 149.0
5.47000, 162.0
5.54000, 161.0
5.61000, 176.0
5.68000, 186.0
5.75000, 525.0
5.82000, 5229.0
5.89000, 14743.0
5.96000, 7514.0
6.03000, 844.0
6.10000, 139.0
6.17000, 173.0
6.24000, 164.0
6.31000, 156.0
6.38000, 450.0
6.45000, 1582.0
6.52000, 1715.0
6.59000, 540.0
6.66000, 124.0
6.73000, 104.0
6.80000, 84.0
6.87000, 81.0
6.94000, 69.0
7.01000, 91.0
7.08000, 74.0
7.15000, 84.0
7.22000, 85.0
7.29000, 83.0
7.36000, 83.0
7.43000, 87.0
7.50000, 69.0
7.57000, 80.0
7.64000, 91.0
7.71000, 75.0
7.78000, 84.0
7.85000, 82.0
7.92000, 75.0
7.99000, 85.0
8.06000, 65.0
8.13000, 77.0
8.20000, 74.0
8.27000, 73.0
8.34000, 79.0
8.41000, 53.0
8.48000, 77.0
8.55000, 70.0
8.62000, 74.0
8.69000, 77.0
8.76000, 72.0
8.83000, 67.0
8.90000, 63.0
8.97000, 61.0
9.04000, 61.0
9.11000, 69.0
9.18000, 52.0
9.25000, 70.0
9.32000, 59.0
9.39000, 69.0
9.46000, 55.0
9.53000, 61.0
9.60000, 59.0
9.67000, 64.0
9.74000, 55.0
9.81000, 57.0
9.88000, 43.0
9.95000, 47.0
10.02000, 61.0
10.09000, 62.0
10.16000, 58.0
10.23000, 50.0
10.30000, 40.0
10.37000, 50.0
10.44000, 54.0
10.51000, 50.0
10.58000, 41.0
10.65000, 51.0
10.72000, 50.0
10.79000, 36.0
10.86000, 40.0
10.93000, 42.0
11.00000, 35.0
11.07000, 44.0
11.14000, 33.0
11.21000, 46.0
11.28000, 38.0
11.35000, 33.0
11.42000, 41.0
11.49000, 42.0
11.56000, 29.0
11.63000, 37.0
11.70000, 44.0
11.77000, 67.0
11.84000, 49.0
11.91000, 32.0
11.98000, 38.0
12.05000, 36.0
12.12000, 36.0
12.19000, 27.0
12.26000, 38.0
12.33000, 39.0
12.40000, 49.0
12.47000, 31.0
12.54000, 36.0
12.61000, 37.0
12.68000, 32.0
12.75000, 28.0
12.82000, 26.0
12.89000, 27.0
12.96000, 26.0
13.03000, 41.0
13.10000, 25.0
13.17000, 26.0
13.24000, 21.0
13.31000, 25.0
13.38000, 31.0
13.45000, 29.0
13.52000, 26.0
13.59000, 25.0
13.66000, 28.0
13.73000, 16.0
13.80000, 21.0
13.87000, 20.0
13.94000, 18.0
14.01000, 20.0
14.08000, 20.0
14.15000, 20.0
14.22000, 19.0
14.29000, 22.0
14.36000, 19.0
14.43000, 18.0
14.50000, 15.0
14.57000, 18.0
14.64000, 15.0
14.71000, 20.0
14.78000, 15.0
14.85000, 12.0
14.92000, 18.0
14.99000, 11.0
15.06000, 14.0
15.13000, 9.0
15.20000, 15.0
15.27000, 10.0
15.34000, 14.0
15.41000, 15.0
15.48000, 10.0
15.55000, 12.0
15.62000, 15.0
15.69000, 9.0
15.76000, 9.0
15.83000, 8.0
15.90000, 11.0
15.97000, 14.0
16.04000, 11.0
16.11000, 11.0
16.18000, 9.0
16.25000, 8.0
16.32000, 3.0
16.39000, 10.0
16.46000, 8.0
16.53000, 7.0
16.60000, 7.0
16.67000, 7.0
16.74000, 7.0
16.81000, 5.0
16.88000, 5.0
16.95000, 1.0
17.02000, 6.0
17.09000, 5.0
17.16000, 4.0
17.23000, 9.0
17.30000, 6.0
17.37000, 3.0
17.44000, 5.0
17.51000, 8.0
17.58000, 4.0
17.65000, 5.0
17.72000, 5.0
17.79000, 2.0
17.86000, 3.0
17.93000, 5.0
18.00000, 6.0
18.07000, 2.0
18.14000, 4.0
18.21000, 2.0
18.28000, 3.0
18.35000, 3.0
18.42000, 2.0
18.49000, 3.0
18.56000, 2.0
18.63000, 2.0
18.70000, 4.0
18.77000, 0.0
18.84000, 2.0
18.91000, 3.0
18.98000, 5.0
19.05000, 1.0
19.12000, 2.0
19.19000, 1.0
19.26000, 0.0
19.33000, 1.0
19.40000, 1.0
19.47000, 0.0
19.54000, 1.0
19.61000, 1.0
19.68000, 0.0
19.75000, 1.0
19.82000, 0.0
19.89000, 0.0
19.96000, 0.0
20.03000, 0.0
20.10000, 0.0
20.17000, 0.0
20.24000, 0.0
20.27500, 0.0
#ENDOFDATA   :