File: dtsa2/detectors/2-FEI Sirion/Oxford p6 10eV 2K.txt
#FORMAT      : EMSA/MAS Spectral Data File
#VERSION     : 1.0
#TITLE       : 2048-10eV-s4-p6
#DATE        : 29-MAY-2014
#TIME        : 14:59
#OWNER       :
#NPOINTS     : 2048.0
#NCOLUMNS    : 1.0
#XUNITS      : keV
#YUNITS      : counts
#DATATYPE    : XY
#XPERCHAN    : 0.01
#OFFSET      : -0.2
#SIGNALTYPE  : EDS
#CHOFFSET    : 20.0
#LIVETIME    : 100.271
#REALTIME    : 141.148
#BEAMKV      : 20.0
#PROBECUR    : 0.0
#MAGCAM      : 3500.0
#XTILTSTGE   : 0.0
#AZIMANGLE   : 0.0
#ELEVANGLE   : 35.0
#XPOSITION mm: -3.1130
#YPOSITION mm: 1.3240
#ZPOSITION mm: 5.0130
##OXINSTPT   : 6
##OXINSTSTROB: 34.46
##OXINSTELEMS: 25,6,13
##OXINSTLABEL: 25, 5.899, Mn
##OXINSTLABEL: 25, 6.490, Mn
##OXINSTLABEL: 25, 0.636, Mn
##OXINSTLABEL: 25, 0.567, Mn
##OXINSTLABEL: 6, 0.277, C
##OXINSTLABEL: 13, 1.487, Al
#SPECTRUM    : Spectral Data Starts Here
-0.20000, 0.0
-0.13000, 0.0
-0.06000, 5.0
0.01000, 7830.0
0.08000, 110.0
0.15000, 144.0
0.22000, 264.0
0.29000, 998.0
0.36000, 265.0
0.43000, 487.0
0.50000, 1442.0
0.57000, 5281.0
0.64000, 12294.0
0.71000, 425.0
0.78000, 182.0
0.85000, 213.0
0.92000, 263.0
0.99000, 277.0
1.06000, 341.0
1.13000, 381.0
1.20000, 452.0
1.27000, 481.0
1.34000, 496.0
1.41000, 549.0
1.48000, 703.0
1.55000, 600.0
1.62000, 530.0
1.69000, 598.0
1.76000, 637.0
1.83000, 595.0
1.90000, 626.0
1.97000, 600.0
2.04000, 631.0
2.11000, 662.0
2.18000, 618.0
2.25000, 629.0
2.32000, 626.0
2.39000, 616.0
2.46000, 638.0
2.53000, 650.0
2.60000, 595.0
2.67000, 623.0
2.74000, 620.0
2.81000, 621.0
2.88000, 538.0
2.95000, 597.0
3.02000, 575.0
3.09000, 542.0
3.16000, 564.0
3.23000, 543.0
3.30000, 553.0
3.37000, 528.0
3.44000, 511.0
3.51000, 508.0
3.58000, 508.0
3.65000, 484.0
3.72000, 491.0
3.79000, 477.0
3.86000, 471.0
3.93000, 464.0
4.00000, 457.0
4.07000, 467.0
4.14000, 544.0
4.21000, 484.0
4.28000, 414.0
4.35000, 400.0
4.42000, 432.0
4.49000, 411.0
4.56000, 397.0
4.63000, 379.0
4.70000, 417.0
4.77000, 383.0
4.84000, 361.0
4.91000, 380.0
4.98000, 348.0
5.05000, 365.0
5.12000, 351.0
5.19000, 335.0
5.26000, 347.0
5.33000, 299.0
5.40000, 330.0
5.47000, 312.0
5.54000, 325.0
5.61000, 343.0
5.68000, 381.0
5.75000, 1023.0
5.82000, 10667.0
5.89000, 29634.0
5.96000, 15092.0
6.03000, 1624.0
6.10000, 321.0
6.17000, 301.0
6.24000, 302.0
6.31000, 369.0
6.38000, 910.0
6.45000, 3228.0
6.52000, 3482.0
6.59000, 951.0
6.66000, 231.0
6.73000, 183.0
6.80000, 164.0
6.87000, 176.0
6.94000, 182.0
7.01000, 180.0
7.08000, 148.0
7.15000, 169.0
7.22000, 179.0
7.29000, 193.0
7.36000, 188.0
7.43000, 148.0
7.50000, 169.0
7.57000, 171.0
7.64000, 174.0
7.71000, 171.0
7.78000, 168.0
7.85000, 159.0
7.92000, 157.0
7.99000, 154.0
8.06000, 154.0
8.13000, 132.0
8.20000, 143.0
8.27000, 162.0
8.34000, 143.0
8.41000, 128.0
8.48000, 129.0
8.55000, 138.0
8.62000, 135.0
8.69000, 140.0
8.76000, 131.0
8.83000, 152.0
8.90000, 136.0
8.97000, 131.0
9.04000, 136.0
9.11000, 126.0
9.18000, 125.0
9.25000, 113.0
9.32000, 133.0
9.39000, 119.0
9.46000, 114.0
9.53000, 124.0
9.60000, 108.0
9.67000, 118.0
9.74000, 125.0
9.81000, 108.0
9.88000, 122.0
9.95000, 116.0
10.02000, 103.0
10.09000, 102.0
10.16000, 112.0
10.23000, 123.0
10.30000, 95.0
10.37000, 106.0
10.44000, 105.0
10.51000, 110.0
10.58000, 106.0
10.65000, 94.0
10.72000, 100.0
10.79000, 94.0
10.86000, 88.0
10.93000, 99.0
11.00000, 83.0
11.07000, 94.0
11.14000, 91.0
11.21000, 90.0
11.28000, 74.0
11.35000, 75.0
11.42000, 76.0
11.49000, 73.0
11.56000, 68.0
11.63000, 77.0
11.70000, 91.0
11.77000, 116.0
11.84000, 107.0
11.91000, 81.0
11.98000, 79.0
12.05000, 69.0
12.12000, 61.0
12.19000, 72.0
12.26000, 72.0
12.33000, 75.0
12.40000, 69.0
12.47000, 57.0
12.54000, 59.0
12.61000, 54.0
12.68000, 58.0
12.75000, 58.0
12.82000, 60.0
12.89000, 58.0
12.96000, 65.0
13.03000, 55.0
13.10000, 48.0
13.17000, 44.0
13.24000, 43.0
13.31000, 54.0
13.38000, 46.0
13.45000, 41.0
13.52000, 49.0
13.59000, 47.0
13.66000, 45.0
13.73000, 43.0
13.80000, 39.0
13.87000, 43.0
13.94000, 35.0
14.01000, 29.0
14.08000, 45.0
14.15000, 32.0
14.22000, 34.0
14.29000, 26.0
14.36000, 37.0
14.43000, 32.0
14.50000, 24.0
14.57000, 33.0
14.64000, 35.0
14.71000, 32.0
14.78000, 32.0
14.85000, 27.0
14.92000, 31.0
14.99000, 31.0
15.06000, 28.0
15.13000, 26.0
15.20000, 24.0
15.27000, 19.0
15.34000, 18.0
15.41000, 28.0
15.48000, 27.0
15.55000, 28.0
15.62000, 22.0
15.69000, 19.0
15.76000, 24.0
15.83000, 27.0
15.90000, 23.0
15.97000, 15.0
16.04000, 18.0
16.11000, 16.0
16.18000, 14.0
16.25000, 12.0
16.32000, 20.0
16.39000, 13.0
16.46000, 17.0
16.53000, 16.0
16.60000, 17.0
16.67000, 19.0
16.74000, 13.0
16.81000, 16.0
16.88000, 13.0
16.95000, 12.0
17.02000, 12.0
17.09000, 7.0
17.16000, 11.0
17.23000, 16.0
17.30000, 10.0
17.37000, 12.0
17.44000, 13.0
17.51000, 7.0
17.58000, 15.0
17.65000, 8.0
17.72000, 9.0
17.79000, 7.0
17.86000, 5.0
17.93000, 6.0
18.00000, 10.0
18.07000, 5.0
18.14000, 4.0
18.21000, 5.0
18.28000, 5.0
18.35000, 5.0
18.42000, 6.0
18.49000, 4.0
18.56000, 2.0
18.63000, 7.0
18.70000, 4.0
18.77000, 4.0
18.84000, 3.0
18.91000, 3.0
18.98000, 5.0
19.05000, 5.0
19.12000, 1.0
19.19000, 3.0
19.26000, 4.0
19.33000, 4.0
19.40000, 4.0
19.47000, 1.0
19.54000, 2.0
19.61000, 1.0
19.68000, 0.0
19.75000, 0.0
19.82000, 2.0
19.89000, 0.0
19.96000, 1.0
20.03000, 0.0
20.10000, 0.0
20.17000, 1.0
20.24000, 0.0
20.27000, 0.0
#ENDOFDATA   :