File: dtsa2/DemoSpectra/Benitoite/Al2O3 std.msa
#FORMAT      : EMSA/MAS Spectral Data File
#VERSION     : 1.0
#TITLE       : Bruker AXS spectrum Al2O3
#DATE        : 29-JUL-2008
#TIME        : 10:44
#OWNER       : Bruker AXS
#NPOINTS     : 4096
#NCOLUMNS    : 4
#XUNITS      : eV
#YUNITS      : counts
#DATATYPE    : Y
#XPERCHAN    : 5.00409
#OFFSET      : -477.824
#BEAMKV      : 15
#SIGNALTYPE  : EDS
#ELEVANGLE   : 40
#AZIMANGLE   : 180
#LIVETIME    : 59.359
#REALTIME    : 63.694
#PROBECUR    : 2.5
#TAUWIND     : 0
#TDEADLYR    : 0.00001
#TACTLYR     : 0.045
#TALWIND     : 0.003
#CHOFFSET    : 0.0
#XLABEL      : Energy (eV)
#YLABEL      : Counts
#EDSDET      : SDDUTW
##D2STDCMP   : Al2O3,(O:47.0749),(Al:52.9251),5.0
#SPECTRUM    :
0, 0, 0, 0,
0, 0, 0, 0,
0, 0, 0, 0,
0, 0, 0, 0,
0, 0, 0, 0,
1, 2, 15, 76,
135594, 117045, 90228, 63146,
9, 34, 63, 83,
63, 63, 66, 72,
255, 298, 350, 410,
143, 131, 141, 144,
281, 287, 322, 351,
7888, 10566, 13596, 17129,
5265, 3565, 2010, 1246,
182, 178, 207, 193,
282, 255, 269, 271,
341, 293, 363, 294,
387, 433, 386, 383,
450, 412, 431, 448,
478, 524, 508, 468,
502, 532, 494, 521,
573, 587, 623, 597,
668, 684, 723, 704,
861, 959, 930, 982,
18872, 24031, 30273, 36301,
34375, 28262, 22931, 18321,
873, 728, 629, 459,
270, 253, 261, 266,
285, 286, 268, 285,
301, 275, 303, 263,
266, 268, 284, 284,
326, 324, 313, 321,
254, 259, 261, 251,
259, 299, 275, 242,
222, 241, 233, 264,
260, 233, 222, 232,
225, 246, 245, 253,
261, 221, 247, 225,
248, 235, 245, 243,
223, 239, 263, 213,
250, 218, 216, 260,
227, 228, 222, 221,
214, 203, 224, 218,
271, 283, 261, 262,
212, 230, 223, 220,
210, 215, 186, 210,
180, 197, 195, 212,
211, 187, 186, 198,
184, 172, 185, 181,
159, 148, 183, 172,
170, 175, 194, 186,
168, 167, 171, 179,
161, 180, 180, 185,
170, 197, 148, 168,
175, 165, 126, 141,
138, 133, 153, 167,
148, 149, 149, 148,
144, 122, 138, 157,
115, 154, 136, 129,
148, 143, 123, 148,
142, 122, 100, 126,
115, 131, 152, 121,
124, 127, 127, 128,
128, 101, 142, 105,
121, 103, 117, 134,
114, 95, 125, 97,
127, 93, 94, 120,
93, 105, 97, 115,
110, 103, 107, 119,
113, 95, 113, 79,
97, 114, 102, 96,
105, 124, 92, 93,
89, 98, 109, 103,
96, 80, 94, 98,
88, 93, 83, 80,
87, 80, 75, 83,
93, 69, 90, 87,
79, 104, 67, 82,
60, 87, 77, 81,
74, 87, 74, 69,
61, 85, 79, 88,
62, 85, 55, 75,
83, 74, 68, 71,
73, 70, 70, 91,
63, 69, 65, 67,
65, 71, 71, 62,
75, 60, 72, 71,
63, 62, 70, 62,
54, 64, 61, 58,
77, 61, 60, 54,
60, 59, 59, 50,
54, 55, 47, 67,
51, 55, 51, 68,
51, 51, 49, 52,
43, 53, 56, 38,
50, 57, 56, 61,
70, 45, 44, 47,
46, 50, 45, 51,
43, 44, 54, 56,
46, 53, 35, 44,
51, 50, 40, 40,
40, 46, 38, 46,
24, 42, 38, 55,
43, 54, 51, 45,
54, 42, 40, 34,
42, 47, 38, 47,
48, 51, 38, 43,
43, 32, 34, 37,
36, 40, 42, 37,
36, 35, 39, 43,
41, 29, 39, 30,
44, 35, 28, 34,
31, 39, 32, 35,
41, 39, 38, 33,
34, 28, 45, 27,
35, 29, 39, 30,
33, 31, 29, 27,
36, 29, 26, 26,
29, 27, 26, 29,
20, 24, 38, 33,
28, 26, 31, 26,
29, 24, 25, 26,
29, 32, 26, 34,
24, 17, 34, 29,
25, 23, 24, 23,
24, 25, 25, 23,
18, 17, 22, 18,
20, 23, 28, 29,
21, 23, 25, 21,
17, 30, 15, 18,
25, 22, 23, 20,
22, 18, 18, 17,
22, 17, 20, 13,
19, 14, 15, 17,
21, 20, 15, 17,
16, 18, 16, 18,
13, 23, 21, 21,
28, 16, 19, 23,
14, 15, 10, 13,
16, 15, 17, 16,
13, 18, 12, 15,
10, 23, 20, 9,
22, 21, 21, 15,
10, 18, 10, 10,
11, 13, 14, 10,
15, 14, 6, 16,
13, 13, 11, 10,
14, 10, 14, 13,
13, 6, 12, 11,
6, 14, 6, 8,
8, 9, 10, 9,
10, 16, 10, 17,
16, 9, 13, 10,
8, 10, 20, 8,
11, 7, 12, 8,
10, 7, 5, 7,
7, 13, 8, 13,
10, 7, 1, 6,
9, 4, 7, 12,
6, 8, 6, 4,
3, 4, 9, 7,
4, 5, 4, 6,
9, 7, 7, 8,
7, 3, 5, 4,
9, 3, 6, 5,
4, 3, 0, 5,
3, 5, 4, 6,
9, 3, 6, 7,
4, 4, 7, 4,
8, 7, 5, 4,
6, 4, 6, 4,
2, 0, 2, 5,
3, 5, 5, 5,
5, 3, 2, 6,
3, 5, 2, 3,
4, 4, 1, 4,
3, 3, 4, 3,
3, 1, 4, 2,
2, 3, 1, 2,
1, 4, 0, 4,
1, 2, 2, 4,
2, 1, 0, 3,
1, 4, 2, 1,
2, 1, 2, 1,
0, 1, 0, 0,
0, 4, 0, 1,
1, 0, 1, 0,
0, 0, 2, 1,
0, 1, 0, 1,
2, 1, 4, 0,
0, 0, 1, 0,
0, 1, 0, 1,
0, 0, 0, 0,
0, 0, 0, 0,
0, 0, 0, 0,
0, 0, 0, 0,
0, 0, 0, 0,
0, 0, 0, 0,
0, 0, 0, 0,
0, 0, 0, 0,
0, 0, 0, 0,
0, 0, 0, 0,
0, 0, 0, 0,
0, 0, 0, 0,
0, 0, 0, 0,
0, 0, 0, 0,
0, 0, 0, 0,
0, 0, 0, 0,
0, 0, 0, 0,
0, 0, 0, 0,
0, 0, 0, 0,
0, 0, 0, 0,
0, 0, 0, 0,
0, 0, 0, 0,
0, 0, 0, 0,
0, 0, 0, 0,
0, 0, 0, 0,
0, 0, 0, 0,
0, 0, 0, 0,
0, 1, 0, 0,
0, 0, 0, 0,
0, 0, 0, 0,
0, 0, 0, 0,
0, 0, 0, 0,
0, 0, 0, 0,
0, 0, 0, 0,
0, 0, 0, 0,
0, 0, 0, 0,
0, 0, 0, 0,
0, 0, 0, 0,
0, 0, 0, 0,
0, 0, 0, 0,
0, 0, 0, 0,
0, 0, 0, 0,
0, 0, 0, 0,
0, 0, 0, 0,
0, 0, 0, 0,
0, 0, 0, 0,
0, 0, 0, 0,
0, 0, 0, 0,
0, 0, 0, 0,
0, 0, 0, 0,
0, 0, 0, 0,
0, 0, 0, 0,
0, 0, 0, 0,
0, 0, 0, 0,
0, 0, 0, 0,
0, 0, 0, 0,
0, 0, 0, 0,
0, 0, 0, 0,
0, 0, 0, 0,
0, 0, 0, 0,
0, 0, 0, 0,
0, 0, 0, 0,
0, 0, 0, 0,
0, 0, 0, 0,
0, 0, 0, 0,
#ENDOFDATA   :