File: dtsa2/DemoSpectra/Benitoite/BaF2 std.msa
#FORMAT      : EMSA/MAS Spectral Data File
#VERSION     : 1.0
#TITLE       : Bruker AXS spectrum BaF2
#DATE        : 29-JUL-2008
#TIME        : 10:31
#OWNER       : Bruker AXS
#NPOINTS     : 4096
#NCOLUMNS    : 4
#XUNITS      : eV
#YUNITS      : counts
#DATATYPE    : Y
#XPERCHAN    : 5.00409
#OFFSET      : -477.824
#BEAMKV      : 15
#SIGNALTYPE  : EDS
#ELEVANGLE   : 40
#AZIMANGLE   : 180
#LIVETIME    : 59.362
#REALTIME    : 63.784
#PROBECUR    : 2.5
#TAUWIND     : 0
#TDEADLYR    : 0.00001
#TACTLYR     : 0.045
#TALWIND     : 0.003
#CHOFFSET    : 0.0
#XLABEL      : Energy (eV)
#YLABEL      : Counts
#EDSDET      : SDDUTW
##D2STDCMP   : BaF2,(F:21.672),(Ba:78.328),5.0
#SPECTRUM    :
0, 0, 0, 0,
0, 0, 0, 0,
0, 0, 0, 0,
0, 0, 0, 0,
0, 0, 0, 0,
2, 1, 17, 65,
135068, 116436, 90054, 63254,
21, 70, 123, 160,
412, 451, 486, 513,
1354, 1529, 1695, 1848,
477, 453, 463, 443,
579, 600, 610, 592,
965, 1059, 1111, 1157,
2729, 3266, 3476, 3945,
11172, 13546, 16160, 18895,
4585, 3331, 2531, 2044,
1575, 1474, 1289, 1147,
568, 588, 525, 526,
1001, 1071, 960, 974,
863, 882, 927, 903,
623, 584, 598, 623,
567, 574, 567, 594,
678, 646, 637, 667,
664, 660, 672, 669,
647, 728, 717, 730,
739, 710, 755, 727,
677, 707, 691, 687,
717, 713, 794, 751,
797, 815, 799, 793,
796, 876, 811, 781,
760, 736, 740, 741,
732, 761, 716, 779,
724, 723, 718, 725,
710, 741, 740, 720,
774, 727, 756, 753,
750, 701, 705, 704,
750, 689, 723, 740,
702, 738, 751, 663,
720, 767, 702, 761,
790, 763, 744, 736,
651, 704, 692, 706,
711, 694, 632, 674,
641, 677, 676, 659,
642, 638, 657, 645,
598, 639, 620, 629,
597, 623, 598, 658,
610, 619, 580, 607,
571, 629, 581, 610,
616, 584, 579, 596,
584, 597, 599, 563,
567, 547, 583, 545,
555, 569, 505, 505,
541, 568, 547, 544,
528, 606, 572, 557,
557, 541, 543, 568,
780, 818, 807, 790,
738, 715, 697, 716,
538, 513, 509, 483,
496, 489, 464, 487,
520, 532, 516, 563,
709, 705, 795, 791,
4053, 4589, 5195, 5724,
9653, 9167, 8867, 8374,
1828, 1480, 1310, 1108,
466, 494, 467, 462,
777, 832, 1003, 1079,
3936, 4250, 4355, 4657,
3452, 3247, 2987, 2786,
1252, 1102, 1049, 1014,
630, 637, 604, 634,
1514, 1585, 1645, 1757,
1446, 1384, 1221, 1148,
417, 396, 384, 354,
335, 351, 362, 310,
426, 475, 479, 512,
878, 850, 881, 886,
512, 510, 463, 495,
330, 292, 289, 332,
438, 489, 436, 493,
390, 399, 429, 408,
299, 328, 295, 302,
274, 270, 288, 258,
244, 230, 259, 290,
259, 222, 241, 219,
253, 245, 267, 255,
244, 239, 239, 240,
264, 268, 232, 244,
264, 222, 238, 217,
237, 226, 229, 221,
230, 224, 222, 212,
230, 227, 246, 210,
234, 186, 236, 216,
192, 211, 203, 232,
204, 220, 202, 212,
212, 206, 203, 215,
186, 189, 218, 210,
220, 185, 188, 187,
194, 193, 231, 200,
207, 201, 202, 191,
213, 192, 209, 212,
175, 184, 217, 190,
171, 173, 192, 187,
182, 177, 180, 200,
178, 178, 166, 169,
178, 195, 190, 144,
185, 169, 160, 146,
156, 157, 179, 161,
141, 158, 192, 154,
147, 150, 155, 141,
168, 157, 161, 164,
149, 148, 169, 164,
172, 150, 176, 172,
164, 148, 161, 164,
153, 154, 134, 151,
160, 159, 137, 150,
129, 149, 139, 127,
130, 145, 152, 130,
126, 150, 138, 152,
124, 133, 130, 136,
136, 150, 132, 125,
124, 127, 117, 127,
136, 128, 127, 143,
134, 140, 144, 131,
120, 127, 121, 140,
122, 131, 115, 118,
114, 119, 102, 119,
106, 130, 120, 119,
120, 100, 96, 104,
110, 128, 96, 97,
93, 101, 114, 110,
96, 87, 99, 114,
104, 95, 92, 122,
98, 83, 98, 93,
92, 97, 88, 105,
88, 94, 90, 121,
93, 101, 87, 109,
59, 95, 100, 103,
87, 78, 92, 95,
86, 91, 79, 73,
86, 83, 83, 90,
81, 84, 80, 96,
73, 84, 90, 73,
67, 71, 73, 91,
74, 70, 82, 78,
88, 88, 77, 71,
67, 63, 69, 65,
65, 59, 67, 66,
70, 61, 77, 68,
77, 71, 66, 60,
56, 60, 53, 58,
67, 61, 58, 51,
68, 57, 63, 50,
51, 57, 66, 42,
60, 58, 54, 65,
65, 44, 58, 58,
54, 48, 53, 57,
50, 53, 55, 60,
46, 56, 47, 35,
44, 44, 36, 61,
33, 43, 38, 53,
58, 43, 48, 32,
40, 38, 42, 38,
36, 34, 44, 37,
35, 34, 34, 28,
45, 25, 36, 40,
42, 38, 35, 33,
26, 30, 31, 41,
35, 37, 35, 27,
21, 27, 26, 32,
24, 30, 34, 30,
21, 32, 30, 18,
26, 31, 21, 30,
25, 26, 24, 28,
18, 18, 15, 26,
23, 23, 24, 21,
18, 22, 16, 17,
26, 10, 24, 19,
21, 20, 12, 16,
32, 24, 13, 19,
16, 20, 21, 16,
18, 22, 16, 19,
13, 18, 17, 16,
16, 16, 9, 10,
12, 11, 11, 8,
7, 12, 12, 9,
10, 13, 8, 12,
7, 9, 8, 4,
2, 7, 9, 7,
6, 7, 6, 3,
4, 3, 4, 2,
3, 5, 5, 3,
2, 3, 3, 1,
2, 4, 4, 2,
3, 3, 0, 1,
0, 1, 1, 1,
0, 0, 0, 0,
0, 0, 0, 0,
0, 0, 0, 0,
0, 0, 0, 0,
1, 1, 0, 0,
0, 0, 0, 0,
0, 0, 0, 0,
0, 0, 0, 0,
0, 0, 0, 0,
0, 0, 0, 0,
0, 2, 0, 0,
0, 0, 0, 0,
0, 0, 0, 1,
1, 1, 0, 0,
0, 0, 0, 0,
0, 0, 0, 0,
0, 0, 0, 0,
0, 0, 0, 0,
0, 0, 0, 0,
0, 0, 0, 0,
0, 0, 1, 0,
0, 1, 0, 0,
0, 0, 0, 0,
0, 0, 0, 1,
0, 0, 0, 0,
0, 0, 0, 1,
0, 0, 0, 0,
0, 0, 0, 0,
0, 0, 0, 0,
0, 0, 0, 0,
0, 0, 0, 0,
0, 0, 0, 0,
0, 0, 0, 0,
0, 0, 0, 0,
0, 0, 0, 0,
0, 1, 0, 0,
0, 0, 0, 0,
0, 0, 0, 0,
0, 0, 0, 0,
0, 0, 0, 0,
0, 0, 0, 0,
0, 0, 1, 0,
0, 0, 0, 0,
0, 0, 0, 0,
0, 0, 0, 0,
0, 0, 0, 1,
0, 0, 0, 0,
0, 0, 0, 0,
0, 0, 0, 0,
0, 0, 0, 0,
0, 0, 0, 0,
0, 0, 0, 0,
0, 0, 0, 0,
0, 0, 0, 0,
0, 0, 0, 0,
0, 0, 0, 0,
0, 0, 0, 0,
0, 0, 0, 0,
0, 0, 0, 0,
0, 0, 0, 0,
0, 0, 0, 0,
0, 0, 0, 0,
#ENDOFDATA   :