File: dtsa2/DemoSpectra/Benitoite/Benitoite std.msa
#FORMAT      : EMSA/MAS Spectral Data File
#VERSION     : 1.0
#TITLE       : Bruker AXS spectrum Benitoite
#DATE        : 29-JUL-2008
#TIME        : 11:14
#OWNER       : Bruker AXS
#NPOINTS     : 4096
#NCOLUMNS    : 4
#XUNITS      : eV
#YUNITS      : counts
#DATATYPE    : Y
#XPERCHAN    : 5.00409
#OFFSET      : -477.824
#BEAMKV      : 15
#SIGNALTYPE  : EDS
#ELEVANGLE   : 40
#AZIMANGLE   : 180
#LIVETIME    : 59.351
#REALTIME    : 63.186
#PROBECUR    : 2.5
#TAUWIND     : 0
#TDEADLYR    : 0.00001
#TACTLYR     : 0.045
#TALWIND     : 0.003
#CHOFFSET    : 0.0
#XLABEL      : Energy (eV)
#YLABEL      : Counts
#EDSDET      : SDDUTW
##D2STDCMP   : Benitoite,(O:34.828),(Si:20.3791),(Ti:11.5776),(Ba:33.2153),5.0
#SPECTRUM    :
0, 0, 0, 0,
0, 0, 0, 0,
0, 0, 0, 0,
0, 0, 0, 0,
0, 0, 0, 0,
0, 4, 17, 52,
106102, 91570, 70671, 49931,
8, 33, 61, 80,
99, 104, 108, 113,
405, 468, 528, 590,
233, 242, 257, 277,
864, 874, 866, 881,
5023, 6619, 8424, 10694,
3542, 2566, 1655, 1239,
367, 354, 330, 341,
409, 461, 459, 548,
812, 780, 731, 699,
440, 470, 452, 417,
690, 701, 721, 619,
661, 654, 721, 699,
522, 497, 565, 555,
547, 580, 590, 544,
510, 588, 573, 556,
576, 563, 617, 614,
604, 622, 595, 653,
631, 674, 651, 698,
654, 628, 637, 645,
3718, 4656, 5901, 7298,
15545, 13787, 12214, 10328,
1334, 1198, 1209, 1069,
492, 454, 490, 485,
469, 514, 459, 510,
513, 471, 492, 491,
470, 460, 448, 482,
470, 450, 505, 466,
475, 478, 473, 447,
469, 439, 488, 435,
489, 466, 422, 458,
409, 451, 435, 416,
415, 440, 422, 445,
458, 429, 433, 399,
431, 423, 416, 396,
416, 418, 456, 409,
378, 423, 367, 416,
402, 376, 381, 370,
386, 374, 379, 375,
370, 367, 402, 406,
366, 351, 352, 354,
345, 345, 342, 319,
320, 353, 384, 385,
349, 341, 340, 348,
330, 322, 305, 333,
319, 309, 289, 363,
326, 320, 332, 306,
313, 306, 336, 334,
358, 406, 424, 429,
358, 415, 339, 374,
315, 293, 297, 331,
260, 277, 296, 291,
270, 282, 324, 312,
391, 353, 393, 439,
1846, 2103, 2347, 2674,
6239, 6374, 6166, 6108,
2433, 2154, 1927, 1696,
315, 308, 335, 294,
382, 416, 453, 470,
1583, 1581, 1635, 1751,
1628, 1514, 1453, 1449,
885, 809, 741, 732,
338, 327, 303, 295,
593, 674, 652, 695,
532, 581, 496, 506,
232, 218, 199, 247,
182, 193, 194, 174,
227, 221, 238, 280,
352, 364, 395, 389,
272, 228, 218, 189,
201, 180, 178, 200,
243, 220, 224, 252,
197, 208, 185, 204,
164, 169, 187, 166,
156, 170, 153, 165,
141, 156, 127, 183,
134, 150, 133, 149,
151, 149, 153, 138,
148, 121, 133, 135,
142, 129, 142, 153,
144, 134, 128, 137,
115, 143, 136, 122,
147, 130, 133, 119,
135, 121, 120, 143,
132, 121, 133, 110,
130, 114, 114, 134,
117, 103, 105, 123,
110, 109, 98, 122,
115, 119, 107, 139,
108, 113, 105, 112,
116, 107, 109, 103,
120, 87, 123, 108,
117, 98, 108, 129,
81, 109, 102, 89,
93, 84, 100, 101,
120, 94, 99, 109,
106, 100, 97, 102,
78, 93, 97, 113,
93, 94, 98, 111,
78, 101, 77, 118,
81, 91, 88, 82,
107, 103, 96, 94,
78, 91, 93, 96,
83, 79, 81, 71,
95, 81, 74, 81,
84, 76, 93, 80,
70, 75, 82, 75,
79, 69, 73, 90,
65, 63, 70, 63,
76, 85, 61, 58,
88, 84, 65, 75,
70, 61, 71, 59,
76, 65, 63, 73,
65, 49, 64, 63,
78, 58, 63, 58,
58, 47, 64, 62,
75, 66, 58, 66,
61, 54, 59, 70,
59, 61, 62, 61,
55, 40, 48, 46,
63, 51, 61, 60,
52, 49, 61, 51,
42, 63, 63, 46,
72, 58, 51, 59,
50, 41, 42, 53,
64, 61, 64, 49,
48, 47, 58, 44,
63, 45, 48, 52,
40, 46, 38, 42,
44, 44, 52, 46,
51, 42, 42, 48,
43, 42, 48, 45,
47, 36, 38, 45,
38, 41, 40, 51,
45, 42, 39, 32,
38, 37, 36, 38,
31, 38, 32, 49,
27, 35, 24, 53,
41, 37, 30, 34,
40, 38, 39, 38,
41, 36, 39, 30,
25, 32, 28, 31,
34, 26, 21, 34,
32, 40, 18, 27,
34, 28, 29, 31,
44, 32, 28, 20,
21, 21, 25, 23,
28, 21, 29, 27,
31, 28, 30, 24,
25, 29, 32, 22,
31, 27, 20, 21,
28, 19, 16, 14,
22, 23, 20, 13,
25, 17, 22, 15,
24, 18, 18, 21,
27, 24, 20, 18,
14, 23, 20, 17,
13, 14, 18, 9,
21, 17, 12, 15,
17, 21, 17, 11,
17, 17, 23, 9,
15, 11, 6, 16,
12, 16, 13, 14,
15, 12, 9, 11,
6, 11, 16, 10,
8, 11, 15, 12,
11, 11, 5, 15,
8, 18, 6, 12,
18, 7, 5, 10,
9, 12, 7, 10,
8, 8, 6, 12,
9, 7, 2, 6,
13, 10, 6, 8,
4, 5, 10, 11,
10, 5, 6, 6,
12, 8, 6, 4,
7, 8, 5, 5,
8, 10, 4, 7,
6, 3, 2, 1,
5, 3, 6, 8,
4, 3, 4, 4,
1, 0, 2, 1,
0, 1, 1, 2,
3, 3, 0, 2,
3, 0, 0, 1,
2, 1, 0, 0,
0, 0, 1, 1,
0, 0, 0, 0,
0, 0, 0, 0,
0, 0, 0, 0,
0, 0, 0, 0,
0, 0, 0, 0,
0, 0, 0, 0,
0, 0, 0, 0,
0, 0, 0, 0,
0, 0, 0, 0,
0, 0, 0, 0,
0, 0, 0, 0,
0, 0, 0, 0,
0, 0, 0, 0,
0, 0, 0, 0,
0, 0, 0, 0,
0, 0, 0, 0,
0, 0, 0, 0,
0, 0, 0, 0,
0, 0, 0, 0,
0, 0, 0, 0,
0, 1, 0, 0,
0, 0, 0, 0,
0, 0, 0, 0,
0, 0, 0, 0,
0, 0, 0, 0,
0, 0, 0, 0,
0, 0, 0, 0,
0, 0, 0, 0,
0, 0, 0, 0,
0, 0, 0, 0,
0, 0, 0, 0,
0, 0, 0, 0,
0, 0, 0, 0,
0, 0, 0, 0,
0, 0, 0, 0,
0, 0, 0, 0,
0, 0, 0, 0,
0, 0, 0, 0,
0, 0, 0, 0,
0, 0, 0, 0,
0, 0, 0, 0,
0, 0, 0, 0,
0, 0, 0, 0,
0, 0, 0, 0,
0, 0, 0, 0,
0, 0, 0, 0,
0, 0, 0, 0,
0, 0, 0, 0,
0, 0, 0, 0,
0, 0, 0, 0,
0, 0, 0, 0,
0, 0, 0, 0,
0, 0, 0, 0,
0, 0, 0, 0,
0, 0, 0, 0,
0, 0, 0, 0,
0, 0, 0, 0,
0, 0, 0, 0,
0, 0, 0, 0,
0, 0, 0, 0,
0, 0, 0, 0,
0, 0, 0, 0,
0, 0, 0, 0,
#ENDOFDATA   :