File: dtsa2/DemoSpectra/Benitoite/Si std.msa
#FORMAT      : EMSA/MAS Spectral Data File
#VERSION     : 1.0
#TITLE       : Bruker AXS spectrum Si
#DATE        : 29-JUL-2008
#TIME        : 10:06
#OWNER       : Bruker AXS
#NPOINTS     : 4096
#NCOLUMNS    : 4
#XUNITS      : eV
#YUNITS      : counts
#DATATYPE    : Y
#XPERCHAN    : 5.00409
#OFFSET      : -477.824
#BEAMKV      : 15
#SIGNALTYPE  : EDS
#ELEVANGLE   : 40
#AZIMANGLE   : 180
#LIVETIME    : 59.35
#REALTIME    : 65.123
#PROBECUR    : 2.5
#TAUWIND     : 0
#TDEADLYR    : 0.00001
#TACTLYR     : 0.045
#TALWIND     : 0.003
#CHOFFSET    : 0.0
#XLABEL      : Energy (eV)
#YLABEL      : Counts
#EDSDET      : SDDUTW
##D2STDCMP   : Si,(Si:100.0),2.95
#SPECTRUM    :
0, 0, 0, 0,
0, 0, 0, 0,
0, 0, 0, 0,
0, 0, 0, 0,
0, 0, 0, 0,
2, 10, 25, 96,
248320, 214582, 165941, 116003,
172, 346, 528, 643,
96, 87, 81, 74,
177, 203, 224, 248,
109, 100, 118, 111,
162, 173, 181, 176,
343, 339, 312, 371,
322, 354, 343, 322,
513, 470, 515, 502,
665, 612, 621, 613,
754, 732, 722, 736,
831, 779, 748, 787,
815, 815, 841, 812,
827, 863, 889, 895,
840, 836, 827, 876,
883, 884, 882, 838,
830, 852, 861, 846,
896, 898, 911, 840,
958, 965, 1000, 1077,
1131, 1116, 1159, 1118,
1150, 1161, 1188, 1227,
21380, 28366, 36606, 46113,
95461, 84931, 74118, 63366,
5901, 5511, 4900, 4380,
463, 365, 339, 316,
249, 248, 278, 250,
262, 271, 234, 292,
258, 278, 265, 257,
271, 243, 261, 248,
240, 280, 289, 270,
271, 263, 284, 265,
287, 297, 266, 263,
261, 264, 257, 243,
231, 250, 275, 253,
289, 254, 238, 249,
244, 253, 266, 290,
241, 298, 261, 238,
221, 245, 252, 221,
238, 243, 226, 242,
237, 260, 243, 291,
284, 260, 261, 247,
221, 253, 251, 223,
246, 220, 211, 255,
332, 362, 363, 370,
321, 299, 307, 277,
218, 203, 234, 219,
205, 197, 211, 206,
210, 178, 213, 201,
204, 207, 174, 190,
183, 183, 192, 182,
186, 199, 183, 209,
176, 183, 178, 198,
164, 179, 189, 171,
175, 163, 187, 181,
175, 173, 161, 184,
152, 176, 168, 191,
145, 154, 171, 150,
175, 165, 145, 158,
161, 161, 172, 159,
133, 165, 136, 158,
125, 155, 156, 168,
159, 160, 110, 145,
141, 132, 148, 123,
143, 124, 110, 136,
141, 131, 163, 127,
122, 106, 123, 131,
145, 129, 115, 112,
137, 132, 120, 122,
120, 121, 113, 123,
120, 128, 115, 113,
113, 110, 119, 139,
110, 106, 108, 111,
116, 125, 123, 105,
105, 89, 114, 113,
92, 105, 93, 102,
116, 102, 80, 91,
93, 99, 88, 95,
81, 89, 87, 101,
94, 102, 99, 93,
88, 87, 82, 79,
102, 93, 100, 81,
104, 80, 94, 79,
94, 81, 89, 70,
72, 80, 88, 69,
75, 75, 86, 85,
91, 67, 76, 75,
78, 92, 90, 80,
99, 61, 65, 78,
83, 64, 80, 73,
77, 74, 69, 65,
72, 83, 67, 70,
73, 70, 74, 63,
65, 63, 73, 76,
75, 60, 56, 78,
57, 74, 67, 69,
62, 59, 64, 55,
54, 57, 64, 60,
44, 61, 58, 55,
58, 59, 60, 62,
55, 54, 36, 52,
71, 64, 61, 50,
70, 41, 43, 60,
58, 44, 64, 57,
55, 68, 52, 49,
38, 59, 61, 43,
53, 52, 47, 56,
46, 45, 45, 46,
44, 40, 51, 43,
47, 52, 57, 45,
50, 40, 50, 39,
54, 44, 46, 45,
34, 46, 47, 35,
41, 53, 41, 39,
44, 49, 26, 48,
38, 38, 48, 42,
36, 37, 36, 27,
43, 39, 42, 32,
35, 31, 42, 40,
33, 42, 24, 34,
27, 26, 44, 29,
35, 36, 32, 34,
32, 36, 30, 40,
34, 22, 22, 30,
29, 18, 36, 26,
30, 28, 32, 22,
31, 32, 26, 38,
31, 30, 34, 37,
24, 33, 30, 36,
25, 19, 22, 31,
24, 22, 28, 27,
25, 34, 36, 28,
19, 25, 31, 21,
18, 32, 27, 15,
17, 17, 25, 22,
23, 22, 24, 20,
25, 23, 18, 17,
19, 33, 20, 21,
18, 17, 19, 23,
23, 23, 25, 19,
29, 18, 17, 16,
26, 17, 15, 18,
21, 17, 14, 23,
16, 12, 17, 20,
18, 20, 15, 21,
13, 17, 17, 13,
20, 16, 9, 12,
7, 12, 16, 18,
8, 12, 17, 13,
18, 17, 16, 16,
9, 11, 13, 13,
9, 10, 12, 16,
16, 11, 9, 12,
12, 10, 6, 12,
17, 16, 10, 11,
8, 12, 11, 12,
7, 9, 10, 7,
10, 16, 9, 13,
5, 14, 12, 4,
6, 8, 10, 8,
8, 9, 8, 10,
7, 12, 7, 6,
6, 4, 11, 9,
8, 12, 5, 11,
6, 3, 4, 3,
6, 11, 6, 8,
9, 7, 9, 9,
7, 7, 7, 9,
4, 7, 3, 6,
8, 3, 3, 3,
6, 2, 4, 6,
8, 7, 4, 3,
2, 2, 4, 3,
3, 6, 1, 5,
3, 4, 5, 5,
4, 2, 3, 1,
4, 3, 3, 2,
1, 2, 2, 7,
5, 3, 2, 3,
0, 2, 1, 4,
2, 1, 1, 2,
1, 3, 2, 1,
2, 1, 2, 0,
1, 1, 3, 1,
1, 1, 2, 1,
1, 1, 0, 1,
1, 0, 0, 1,
1, 0, 0, 0,
0, 0, 0, 0,
0, 0, 0, 0,
0, 0, 0, 0,
0, 0, 0, 0,
0, 0, 0, 0,
0, 0, 0, 0,
0, 0, 0, 0,
0, 0, 0, 0,
0, 0, 0, 0,
0, 0, 0, 0,
0, 0, 0, 0,
0, 0, 0, 0,
0, 0, 0, 0,
0, 0, 0, 0,
0, 0, 0, 0,
0, 0, 0, 0,
0, 0, 0, 0,
0, 0, 0, 0,
0, 0, 0, 0,
0, 0, 0, 0,
0, 0, 0, 0,
0, 0, 0, 0,
0, 0, 0, 0,
0, 0, 0, 0,
0, 0, 0, 0,
0, 0, 0, 0,
0, 0, 0, 0,
0, 0, 0, 0,
0, 0, 0, 0,
0, 0, 0, 0,
0, 0, 0, 0,
0, 0, 0, 0,
0, 0, 0, 0,
0, 0, 0, 0,
0, 0, 0, 0,
0, 0, 0, 0,
0, 0, 0, 0,
0, 0, 0, 0,
0, 0, 0, 0,
0, 0, 0, 0,
0, 0, 0, 0,
0, 0, 0, 0,
0, 0, 0, 0,
0, 0, 0, 0,
0, 0, 0, 0,
0, 0, 0, 0,
0, 0, 0, 0,
0, 0, 0, 0,
0, 0, 0, 0,
0, 0, 0, 0,
0, 0, 0, 0,
0, 0, 0, 0,
0, 0, 0, 0,
0, 0, 0, 0,
0, 0, 0, 0,
0, 0, 0, 0,
0, 0, 0, 0,
0, 0, 0, 0,
0, 0, 0, 0,
0, 0, 0, 0,
0, 0, 0, 0,
0, 0, 0, 0,
0, 0, 0, 0,
0, 0, 0, 0,
#ENDOFDATA   :