File: dtsa2/DemoSpectra/Benitoite/Ti std.msa
#FORMAT      : EMSA/MAS Spectral Data File
#VERSION     : 1.0
#TITLE       : Bruker AXS spectrum Ti
#DATE        : 29-JUL-2008
#TIME        : 10:24
#OWNER       : Bruker AXS
#NPOINTS     : 4096
#NCOLUMNS    : 4
#XUNITS      : eV
#YUNITS      : counts
#DATATYPE    : Y
#XPERCHAN    : 5.00409
#OFFSET      : -477.824
#BEAMKV      : 15
#SIGNALTYPE  : EDS
#ELEVANGLE   : 40
#AZIMANGLE   : 180
#LIVETIME    : 59.352
#REALTIME    : 63.428
#PROBECUR    : 2.5
#TAUWIND     : 0
#TDEADLYR    : 0.00001
#TACTLYR     : 0.045
#TALWIND     : 0.003
#CHOFFSET    : 0.0
#XLABEL      : Energy (eV)
#YLABEL      : Counts
#EDSDET      : SDDUTW
##D2STDCMP   : Ti,(Ti:100.0),5.0
#SPECTRUM    :
0, 0, 0, 0,
0, 0, 0, 0,
0, 0, 0, 0,
0, 0, 0, 0,
0, 0, 0, 0,
0, 3, 22, 57,
129050, 111689, 86348, 60512,
0, 1, 25, 42,
103, 109, 116, 128,
489, 533, 588, 643,
455, 551, 666, 878,
6217, 5887, 5513, 5211,
1546, 1172, 961, 830,
276, 195, 172, 159,
170, 177, 186, 198,
258, 278, 255, 269,
367, 338, 357, 323,
469, 453, 458, 439,
475, 458, 494, 490,
559, 549, 579, 526,
572, 557, 583, 599,
613, 634, 669, 585,
670, 623, 637, 680,
680, 654, 696, 718,
701, 670, 687, 746,
678, 720, 720, 695,
683, 710, 682, 663,
633, 671, 683, 745,
780, 723, 666, 760,
667, 691, 628, 703,
631, 629, 655, 639,
633, 652, 630, 644,
639, 658, 637, 551,
611, 562, 591, 585,
596, 591, 605, 649,
592, 532, 615, 553,
522, 553, 589, 611,
569, 564, 521, 527,
572, 505, 532, 594,
541, 526, 572, 544,
518, 491, 501, 517,
499, 501, 511, 550,
454, 492, 462, 492,
478, 453, 454, 482,
408, 463, 435, 408,
455, 475, 412, 410,
403, 427, 456, 413,
382, 426, 422, 378,
431, 366, 406, 382,
385, 389, 392, 370,
401, 379, 387, 375,
370, 357, 359, 381,
351, 338, 404, 349,
352, 356, 333, 374,
383, 367, 340, 330,
323, 322, 354, 336,
306, 310, 330, 343,
342, 300, 338, 326,
296, 310, 268, 328,
314, 333, 330, 337,
426, 418, 461, 462,
2278, 2824, 3510, 4150,
24187, 25378, 26870, 28193,
16268, 14549, 12780, 10992,
900, 739, 664, 520,
294, 339, 320, 349,
447, 520, 551, 594,
2345, 2542, 2776, 3024,
3096, 2920, 2752, 2414,
504, 476, 385, 331,
205, 171, 172, 165,
176, 162, 170, 177,
153, 173, 178, 188,
161, 154, 164, 158,
181, 176, 168, 176,
158, 154, 163, 164,
176, 165, 140, 177,
153, 148, 169, 137,
141, 120, 147, 167,
171, 140, 167, 136,
128, 155, 151, 151,
154, 147, 167, 149,
155, 145, 118, 158,
139, 133, 139, 138,
154, 139, 140, 155,
154, 148, 130, 135,
135, 131, 151, 140,
131, 122, 121, 129,
128, 136, 136, 142,
125, 127, 134, 122,
119, 116, 121, 120,
117, 118, 118, 116,
124, 112, 111, 115,
111, 129, 119, 128,
112, 106, 107, 121,
127, 117, 126, 107,
110, 104, 123, 103,
83, 113, 107, 121,
114, 121, 100, 88,
110, 107, 119, 96,
85, 115, 105, 99,
100, 85, 91, 113,
112, 78, 101, 111,
104, 103, 101, 95,
99, 79, 95, 93,
90, 102, 83, 90,
90, 101, 93, 90,
97, 79, 99, 73,
79, 96, 87, 82,
95, 88, 89, 86,
90, 81, 79, 84,
78, 76, 93, 92,
78, 69, 75, 94,
74, 74, 63, 92,
87, 82, 82, 87,
69, 71, 79, 76,
73, 69, 75, 80,
59, 66, 79, 57,
79, 63, 105, 81,
62, 71, 80, 85,
83, 72, 68, 67,
62, 73, 58, 66,
66, 65, 63, 63,
65, 68, 54, 55,
50, 47, 75, 51,
53, 67, 65, 62,
54, 58, 68, 56,
73, 47, 54, 53,
59, 62, 41, 59,
53, 52, 61, 47,
50, 59, 53, 48,
54, 55, 47, 49,
48, 37, 51, 53,
58, 57, 44, 45,
47, 46, 37, 50,
33, 44, 34, 45,
43, 31, 47, 44,
40, 46, 46, 40,
42, 38, 37, 32,
39, 45, 43, 38,
34, 40, 50, 28,
23, 36, 38, 38,
28, 42, 36, 47,
36, 33, 35, 38,
38, 30, 36, 31,
29, 34, 25, 29,
37, 23, 32, 29,
39, 32, 34, 42,
29, 27, 34, 23,
25, 24, 31, 25,
27, 36, 28, 24,
33, 28, 31, 25,
34, 32, 22, 19,
31, 26, 40, 32,
21, 30, 19, 29,
25, 19, 33, 29,
19, 18, 15, 20,
17, 15, 27, 25,
23, 11, 24, 20,
25, 23, 16, 20,
24, 16, 19, 26,
22, 13, 21, 19,
16, 16, 29, 26,
16, 15, 11, 19,
19, 13, 20, 18,
17, 18, 17, 18,
16, 14, 10, 10,
16, 18, 19, 14,
15, 19, 12, 8,
8, 10, 18, 16,
9, 18, 12, 12,
11, 12, 13, 11,
11, 7, 14, 8,
18, 7, 8, 8,
6, 12, 12, 7,
10, 8, 7, 8,
10, 11, 7, 5,
10, 7, 9, 9,
6, 6, 6, 7,
6, 6, 11, 6,
9, 5, 8, 3,
6, 6, 5, 6,
5, 5, 3, 3,
6, 3, 4, 5,
4, 2, 3, 4,
2, 3, 2, 6,
1, 4, 3, 4,
3, 5, 4, 7,
1, 2, 2, 3,
3, 3, 2, 4,
3, 2, 1, 4,
0, 2, 1, 1,
1, 1, 2, 1,
0, 0, 0, 0,
0, 0, 0, 1,
0, 0, 0, 1,
0, 0, 0, 0,
0, 0, 0, 0,
0, 0, 0, 0,
0, 0, 0, 0,
1, 0, 0, 0,
0, 0, 0, 0,
0, 0, 0, 0,
0, 0, 0, 0,
0, 0, 0, 0,
0, 0, 0, 0,
0, 0, 0, 1,
0, 0, 0, 0,
0, 0, 0, 0,
0, 0, 0, 0,
1, 0, 0, 0,
0, 0, 0, 0,
0, 0, 0, 0,
0, 0, 0, 0,
0, 0, 1, 0,
0, 0, 0, 0,
0, 0, 0, 0,
0, 0, 0, 0,
0, 1, 0, 1,
0, 0, 0, 0,
0, 0, 0, 0,
0, 0, 0, 0,
0, 0, 0, 0,
0, 0, 0, 0,
0, 0, 0, 0,
0, 0, 0, 0,
0, 0, 0, 0,
0, 0, 0, 0,
0, 0, 0, 0,
0, 0, 0, 0,
0, 0, 0, 0,
0, 0, 0, 0,
0, 0, 0, 0,
0, 0, 0, 0,
0, 0, 0, 0,
0, 0, 0, 0,
0, 0, 0, 0,
0, 0, 0, 0,
0, 0, 0, 0,
0, 0, 0, 0,
0, 0, 0, 0,
0, 0, 0, 0,
0, 0, 0, 0,
0, 0, 0, 0,
0, 0, 0, 0,
0, 0, 0, 0,
0, 0, 0, 0,
0, 0, 0, 0,
0, 0, 0, 0,
0, 0, 0, 0,
0, 0, 0, 0,
0, 0, 0, 0,
0, 0, 0, 0,
0, 0, 0, 0,
0, 0, 0, 0,
0, 0, 0, 0,
0, 0, 0, 0,
#ENDOFDATA   :