File: dtsa2/detectors/Sirion-NiOnCu.msa
#FORMAT      : EMSA/MAS Spectral Data File
#VERSION     : 1.0
#TITLE       : Sample 3 - Spectrum 9
#DATE        : 27-AUG-2013
#TIME        : 10:59
#OWNER       :
#NPOINTS     : 2048.0
#NCOLUMNS    : 1.0
#XUNITS      : keV
#YUNITS      : counts
#DATATYPE    : XY
#XPERCHAN    : 0.01
#OFFSET      : -0.2
#SIGNALTYPE  : EDS
#CHOFFSET    : 20.0
#LIVETIME    : 20.06991
#REALTIME    : 29.5014
#BEAMKV      : 20.0
#PROBECUR    : 0.0
#MAGCAM      : 2999.0
#XTILTSTGE   : 0.0
#AZIMANGLE   : 0.0
#ELEVANGLE   : 35.0
#XPOSITION mm: 64.2922
#YPOSITION mm: 63.8807
#ZPOSITION mm: 41.3056
##OXINSTPT   : 3
##OXINSTSTROB: 54.30
##OXINSTELEMS: 8,28,29,74,6
##OXINSTLABEL: 8, 0.525, O
##OXINSTLABEL: 28, 7.478, Ni
##OXINSTLABEL: 28, 8.265, Ni
##OXINSTLABEL: 28, 0.851, Ni
##OXINSTLABEL: 28, 0.762, Ni
##OXINSTLABEL: 28, 0.743, Ni
##OXINSTLABEL: 29, 8.048, Cu
##OXINSTLABEL: 29, 8.905, Cu
##OXINSTLABEL: 29, 0.930, Cu
##OXINSTLABEL: 29, 0.832, Cu
##OXINSTLABEL: 29, 0.811, Cu
##OXINSTLABEL: 74, 8.398, W
##OXINSTLABEL: 74, 9.673, W
##OXINSTLABEL: 74, 9.962, W
##OXINSTLABEL: 74, 8.724, W
##OXINSTLABEL: 74, 11.286, W
##OXINSTLABEL: 74, 11.608, W
##OXINSTLABEL: 74, 7.388, W
##OXINSTLABEL: 74, 1.775, W
##OXINSTLABEL: 74, 2.035, W
##OXINSTLABEL: 74, 1.379, W
##OXINSTLABEL: 6, 0.277, C
#SPECTRUM    : Spectral Data Starts Here
-0.20000, 0.0
-0.13000, 0.0
-0.06000, 2.0
0.01000, 509.0
0.08000, 223.0
0.15000, 119.0
0.22000, 288.0
0.29000, 566.0
0.36000, 229.0
0.43000, 396.0
0.50000, 1738.0
0.57000, 1018.0
0.64000, 856.0
0.71000, 2318.0
0.78000, 4853.0
0.85000, 17005.0
0.92000, 5920.0
0.99000, 1211.0
1.06000, 351.0
1.13000, 343.0
1.20000, 385.0
1.27000, 418.0
1.34000, 485.0
1.41000, 478.0
1.48000, 495.0
1.55000, 522.0
1.62000, 505.0
1.69000, 606.0
1.76000, 863.0
1.83000, 784.0
1.90000, 576.0
1.97000, 529.0
2.04000, 559.0
2.11000, 554.0
2.18000, 562.0
2.25000, 570.0
2.32000, 587.0
2.39000, 560.0
2.46000, 560.0
2.53000, 556.0
2.60000, 528.0
2.67000, 538.0
2.74000, 522.0
2.81000, 550.0
2.88000, 495.0
2.95000, 533.0
3.02000, 508.0
3.09000, 497.0
3.16000, 515.0
3.23000, 488.0
3.30000, 468.0
3.37000, 491.0
3.44000, 458.0
3.51000, 484.0
3.58000, 431.0
3.65000, 434.0
3.72000, 426.0
3.79000, 433.0
3.86000, 410.0
3.93000, 400.0
4.00000, 405.0
4.07000, 364.0
4.14000, 397.0
4.21000, 364.0
4.28000, 337.0
4.35000, 382.0
4.42000, 396.0
4.49000, 328.0
4.56000, 353.0
4.63000, 316.0
4.70000, 352.0
4.77000, 298.0
4.84000, 318.0
4.91000, 336.0
4.98000, 289.0
5.05000, 292.0
5.12000, 301.0
5.19000, 275.0
5.26000, 263.0
5.33000, 297.0
5.40000, 279.0
5.47000, 282.0
5.54000, 286.0
5.61000, 253.0
5.68000, 276.0
5.75000, 261.0
5.82000, 254.0
5.89000, 258.0
5.96000, 276.0
6.03000, 274.0
6.10000, 213.0
6.17000, 244.0
6.24000, 241.0
6.31000, 223.0
6.38000, 244.0
6.45000, 226.0
6.52000, 207.0
6.59000, 232.0
6.66000, 211.0
6.73000, 214.0
6.80000, 233.0
6.87000, 248.0
6.94000, 220.0
7.01000, 237.0
7.08000, 224.0
7.15000, 213.0
7.22000, 210.0
7.29000, 269.0
7.36000, 1204.0
7.43000, 4117.0
7.50000, 4678.0
7.57000, 1559.0
7.64000, 313.0
7.71000, 191.0
7.78000, 201.0
7.85000, 325.0
7.92000, 1327.0
7.99000, 4828.0
8.06000, 6151.0
8.13000, 2577.0
8.20000, 891.0
8.27000, 850.0
8.34000, 529.0
8.41000, 276.0
8.48000, 179.0
8.55000, 171.0
8.62000, 145.0
8.69000, 178.0
8.76000, 253.0
8.83000, 635.0
8.90000, 942.0
8.97000, 644.0
9.04000, 242.0
9.11000, 127.0
9.18000, 116.0
9.25000, 116.0
9.32000, 124.0
9.39000, 119.0
9.46000, 114.0
9.53000, 129.0
9.60000, 143.0
9.67000, 168.0
9.74000, 142.0
9.81000, 125.0
9.88000, 115.0
9.95000, 129.0
10.02000, 122.0
10.09000, 133.0
10.16000, 111.0
10.23000, 107.0
10.30000, 103.0
10.37000, 98.0
10.44000, 103.0
10.51000, 97.0
10.58000, 95.0
10.65000, 87.0
10.72000, 99.0
10.79000, 112.0
10.86000, 94.0
10.93000, 99.0
11.00000, 82.0
11.07000, 83.0
11.14000, 81.0
11.21000, 93.0
11.28000, 84.0
11.35000, 98.0
11.42000, 82.0
11.49000, 96.0
11.56000, 86.0
11.63000, 83.0
11.70000, 84.0
11.77000, 84.0
11.84000, 86.0
11.91000, 79.0
11.98000, 82.0
12.05000, 73.0
12.12000, 74.0
12.19000, 75.0
12.26000, 70.0
12.33000, 74.0
12.40000, 65.0
12.47000, 83.0
12.54000, 80.0
12.61000, 59.0
12.68000, 62.0
12.75000, 78.0
12.82000, 63.0
12.89000, 66.0
12.96000, 49.0
13.03000, 49.0
13.10000, 58.0
13.17000, 63.0
13.24000, 52.0
13.31000, 61.0
13.38000, 45.0
13.45000, 42.0
13.52000, 45.0
13.59000, 49.0
13.66000, 56.0
13.73000, 44.0
13.80000, 51.0
13.87000, 46.0
13.94000, 42.0
14.01000, 47.0
14.08000, 32.0
14.15000, 34.0
14.22000, 50.0
14.29000, 46.0
14.36000, 35.0
14.43000, 44.0
14.50000, 31.0
14.57000, 43.0
14.64000, 46.0
14.71000, 25.0
14.78000, 37.0
14.85000, 53.0
14.92000, 58.0
14.99000, 33.0
15.06000, 33.0
15.13000, 17.0
15.20000, 41.0
15.27000, 28.0
15.34000, 35.0
15.41000, 36.0
15.48000, 56.0
15.55000, 33.0
15.62000, 34.0
15.69000, 37.0
15.76000, 33.0
15.83000, 36.0
15.90000, 34.0
15.97000, 33.0
16.04000, 27.0
16.11000, 31.0
16.18000, 33.0
16.25000, 29.0
16.32000, 29.0
16.39000, 26.0
16.46000, 24.0
16.53000, 27.0
16.60000, 27.0
16.67000, 21.0
16.74000, 17.0
16.81000, 20.0
16.88000, 21.0
16.95000, 28.0
17.02000, 22.0
17.09000, 19.0
17.16000, 14.0
17.23000, 17.0
17.30000, 10.0
17.37000, 16.0
17.44000, 11.0
17.51000, 11.0
17.58000, 14.0
17.65000, 14.0
17.72000, 15.0
17.79000, 19.0
17.86000, 13.0
17.93000, 13.0
18.00000, 11.0
18.07000, 12.0
18.14000, 9.0
18.21000, 11.0
18.28000, 8.0
18.35000, 13.0
18.42000, 4.0
18.49000, 6.0
18.56000, 8.0
18.63000, 12.0
18.70000, 7.0
18.77000, 10.0
18.84000, 5.0
18.91000, 5.0
18.98000, 3.0
19.05000, 3.0
19.12000, 7.0
19.19000, 5.0
19.26000, 3.0
19.33000, 2.0
19.40000, 4.0
19.47000, 5.0
19.54000, 1.0
19.61000, 2.0
19.68000, 5.0
19.75000, 4.0
19.82000, 3.0
19.89000, 1.0
19.96000, 3.0
20.03000, 2.0
20.10000, 2.0
20.17000, 2.0
20.24000, 2.0
20.27000, 0.0
#ENDOFDATA   :